Header Size:	 78	 
Pulse Version:	 42	 
Decimal Symbol:	.	 
Date Format:	dd/MM/yyyy	 
Time Format:	HH:mm:ss:mmm	 
Data Type:	Real	 
Slice:	False	 
Z-Axis type:	Linear	 
Z-Axis size:	1	 
Z-Axis unit:	 	 
Z-Axis first value:	 0.0000000000e+000	 
Z-Axis delta:	 1.0000000000e+000	 
X-Axis type:	Linear	 
X-Axis size:	3201	 
X-Axis unit:	Hz	 
X-Axis first value:	 0.0000000000e+000	 
X-Axis delta:	 6.2500000000e-002	 
	 	 
AmplitudeUnit:	m/s²	 
Analyzer:	FFT_Spectrum_Averaging	 
AnalyzerName:	FFT	 
	 	 
	 	 
Bipolar:	False	 
CenterFrequency:	 1.0000000000e+002	 
	 	 
	 	 
	 	 
	 	 
	 	 
	 	 
	 	 
	 	 
Domain:	1	 
Function:	Autospectrum	 
	 	 
InputRange:	 9.7369860443e+003	 
	 	 
	 	 
MultiBufferName:	Input	 
NBW:	 1.5000000000e+000	 
	 	 
OverlapFailed:	False	 
Overrun:	False	 
Power:	True	 
PowerUnit:	(m/s²)²	 
	 	 
RecordLength:	 1.6000000000e+001	 
ReducedSize:	True	 
	 	 
	 	 
	 	 
	 	 
	 	 
SamplingRatio:	 2.5600000000e+000	 
Signal:	Signal 1	 
	 	 
SignalUnit:	m/s²	 
	 	 
	 	 
	 	 
Title:	Autospectrum(Signal 1) - Input	 
Title1:	Working : Input : Input : FFT	 
	 	 
	 	 
Weight:	0	 
ZoomOn:	False	 
	 	 
TemplateName:	Working	 
MeasurementName:	Input	 
MeasurementSlice:	False	 
	 	 
DeltaFrequency:	 6.2500000000e-002	 
	 	 
EnvelopeOn:	False	 
	 	 
	 	 
	 	 
Z-index:	 	1
Date:	 	01/01/2008
Time:	 	00:43:09:750
Relative time:	 	 0.00000e+000
Z-axis:	 	 0.0000000000e+000
1	 0.0000000000e+000	 7.18163e-006
2	 6.2500000000e-002	 2.66379e-005
3	 1.2500000000e-001	 1.97728e-005
4	 1.8750000000e-001	 9.16409e-006
5	 2.5000000000e-001	 2.26876e-005
6	 3.1250000000e-001	 3.24918e-005
7	 3.7500000000e-001	 3.79017e-005
8	 4.3750000000e-001	 6.31362e-006
9	 5.0000000000e-001	 1.09484e-005
10	 5.6250000000e-001	 3.88377e-005
11	 6.2500000000e-001	 2.33824e-005
12	 6.8750000000e-001	 2.80822e-006
13	 7.5000000000e-001	 4.50095e-006
14	 8.1250000000e-001	 3.49882e-006
15	 8.7500000000e-001	 2.14105e-005
16	 9.3750000000e-001	 1.44940e-005
17	 1.0000000000e+000	 2.87826e-007
18	 1.0625000000e+000	 3.37682e-006
19	 1.1250000000e+000	 1.88665e-006
20	 1.1875000000e+000	 3.66874e-006
21	 1.2500000000e+000	 8.83923e-006
22	 1.3125000000e+000	 2.29515e-006
23	 1.3750000000e+000	 6.40483e-007
24	 1.4375000000e+000	 8.86742e-007
25	 1.5000000000e+000	 9.58295e-007
26	 1.5625000000e+000	 6.57269e-007
27	 1.6250000000e+000	 1.93327e-006
28	 1.6875000000e+000	 2.84514e-006
29	 1.7500000000e+000	 1.81132e-006
30	 1.8125000000e+000	 1.72502e-006
31	 1.8750000000e+000	 1.51803e-006
32	 1.9375000000e+000	 7.69589e-007
33	 2.0000000000e+000	 9.94621e-008
34	 2.0625000000e+000	 1.32451e-006
35	 2.1250000000e+000	 1.41432e-006
36	 2.1875000000e+000	 2.08817e-006
37	 2.2500000000e+000	 5.76958e-007
38	 2.3125000000e+000	 1.44547e-006
39	 2.3750000000e+000	 6.38509e-007
40	 2.4375000000e+000	 2.71640e-006
41	 2.5000000000e+000	 2.29184e-006
42	 2.5625000000e+000	 2.51795e-006
43	 2.6250000000e+000	 9.61790e-007
44	 2.6875000000e+000	 3.26086e-006
45	 2.7500000000e+000	 4.16313e-006
46	 2.8125000000e+000	 3.54755e-006
47	 2.8750000000e+000	 3.50179e-006
48	 2.9375000000e+000	 2.47002e-006
49	 3.0000000000e+000	 4.81191e-006
50	 3.0625000000e+000	 4.53183e-006
51	 3.1250000000e+000	 7.38678e-006
52	 3.1875000000e+000	 3.68295e-006
53	 3.2500000000e+000	 5.90526e-006
54	 3.3125000000e+000	 6.99484e-006
55	 3.3750000000e+000	 7.46802e-006
56	 3.4375000000e+000	 7.96433e-006
57	 3.5000000000e+000	 6.89146e-006
58	 3.5625000000e+000	 8.67081e-006
59	 3.6250000000e+000	 9.53951e-006
60	 3.6875000000e+000	 1.00724e-005
61	 3.7500000000e+000	 1.12748e-005
62	 3.8125000000e+000	 1.29199e-005
63	 3.8750000000e+000	 1.32497e-005
64	 3.9375000000e+000	 1.26563e-005
65	 4.0000000000e+000	 1.38307e-005
66	 4.0625000000e+000	 1.64901e-005
67	 4.1250000000e+000	 1.72352e-005
68	 4.1875000000e+000	 1.42986e-005
69	 4.2500000000e+000	 2.25032e-005
70	 4.3125000000e+000	 2.22799e-005
71	 4.3750000000e+000	 2.22034e-005
72	 4.4375000000e+000	 2.59084e-005
73	 4.5000000000e+000	 2.73683e-005
74	 4.5625000000e+000	 2.90431e-005
75	 4.6250000000e+000	 3.33417e-005
76	 4.6875000000e+000	 3.84209e-005
77	 4.7500000000e+000	 3.62083e-005
78	 4.8125000000e+000	 4.38165e-005
79	 4.8750000000e+000	 4.80248e-005
80	 4.9375000000e+000	 5.53018e-005
81	 5.0000000000e+000	 5.27021e-005
82	 5.0625000000e+000	 5.82519e-005
83	 5.1250000000e+000	 5.77138e-005
84	 5.1875000000e+000	 6.76961e-005
85	 5.2500000000e+000	 8.22485e-005
86	 5.3125000000e+000	 1.14173e-004
87	 5.3750000000e+000	 1.22429e-004
88	 5.4375000000e+000	 1.30217e-004
89	 5.5000000000e+000	 1.55473e-004
90	 5.5625000000e+000	 1.66561e-004
91	 5.6250000000e+000	 1.91092e-004
92	 5.6875000000e+000	 2.04259e-004
93	 5.7500000000e+000	 2.12188e-004
94	 5.8125000000e+000	 2.61736e-004
95	 5.8750000000e+000	 3.14735e-004
96	 5.9375000000e+000	 3.63248e-004
97	 6.0000000000e+000	 4.21645e-004
98	 6.0625000000e+000	 4.73679e-004
99	 6.1250000000e+000	 5.38111e-004
100	 6.1875000000e+000	 6.11881e-004
101	 6.2500000000e+000	 7.18539e-004
102	 6.3125000000e+000	 7.98501e-004
103	 6.3750000000e+000	 9.15975e-004
104	 6.4375000000e+000	 1.05769e-003
105	 6.5000000000e+000	 1.22465e-003
106	 6.5625000000e+000	 1.40800e-003
107	 6.6250000000e+000	 1.65435e-003
108	 6.6875000000e+000	 1.84488e-003
109	 6.7500000000e+000	 2.22524e-003
110	 6.8125000000e+000	 2.77481e-003
111	 6.8750000000e+000	 3.24966e-003
112	 6.9375000000e+000	 4.23059e-003
113	 7.0000000000e+000	 5.84644e-003
114	 7.0625000000e+000	 7.88302e-003
115	 7.1250000000e+000	 1.16672e-002
116	 7.1875000000e+000	 1.66643e-002
117	 7.2500000000e+000	 2.48851e-002
118	 7.3125000000e+000	 4.03065e-002
119	 7.3750000000e+000	 3.45086e-002
120	 7.4375000000e+000	 1.28607e-002
121	 7.5000000000e+000	 2.20847e-003
122	 7.5625000000e+000	 3.39779e-004
123	 7.6250000000e+000	 1.55024e-004
124	 7.6875000000e+000	 1.08228e-004
125	 7.7500000000e+000	 1.49933e-004
126	 7.8125000000e+000	 1.33926e-004
127	 7.8750000000e+000	 1.69423e-004
128	 7.9375000000e+000	 1.60328e-004
129	 8.0000000000e+000	 1.40295e-004
130	 8.0625000000e+000	 1.16750e-004
131	 8.1250000000e+000	 1.02809e-004
132	 8.1875000000e+000	 1.34590e-004
133	 8.2500000000e+000	 1.23503e-004
134	 8.3125000000e+000	 8.37700e-005
135	 8.3750000000e+000	 8.20477e-005
136	 8.4375000000e+000	 6.91881e-005
137	 8.5000000000e+000	 5.54574e-005
138	 8.5625000000e+000	 5.38287e-005
139	 8.6250000000e+000	 2.51924e-005
140	 8.6875000000e+000	 2.51769e-005
141	 8.7500000000e+000	 1.95240e-005
142	 8.8125000000e+000	 1.36360e-005
143	 8.8750000000e+000	 2.30445e-005
144	 8.9375000000e+000	 2.09800e-005
145	 9.0000000000e+000	 1.85176e-005
146	 9.0625000000e+000	 5.38334e-006
147	 9.1250000000e+000	 7.23557e-006
148	 9.1875000000e+000	 5.52276e-006
149	 9.2500000000e+000	 5.62389e-006
150	 9.3125000000e+000	 3.20261e-006
151	 9.3750000000e+000	 7.96944e-006
152	 9.4375000000e+000	 5.47041e-006
153	 9.5000000000e+000	 9.17698e-006
154	 9.5625000000e+000	 6.74063e-006
155	 9.6250000000e+000	 8.01566e-006
156	 9.6875000000e+000	 7.00278e-006
157	 9.7500000000e+000	 7.49815e-006
158	 9.8125000000e+000	 8.18361e-006
159	 9.8750000000e+000	 6.52416e-006
160	 9.9375000000e+000	 6.45575e-006
161	 1.0000000000e+001	 6.76405e-006
162	 1.0062500000e+001	 6.66739e-006
163	 1.0125000000e+001	 4.28696e-006
164	 1.0187500000e+001	 5.59134e-006
165	 1.0250000000e+001	 2.19390e-006
166	 1.0312500000e+001	 1.09994e-006
167	 1.0375000000e+001	 9.30351e-007
168	 1.0437500000e+001	 1.78487e-006
169	 1.0500000000e+001	 3.68369e-006
170	 1.0562500000e+001	 3.40415e-006
171	 1.0625000000e+001	 1.95059e-006
172	 1.0687500000e+001	 2.67434e-006
173	 1.0750000000e+001	 2.11048e-006
174	 1.0812500000e+001	 2.43787e-006
175	 1.0875000000e+001	 2.17590e-006
176	 1.0937500000e+001	 1.89864e-006
177	 1.1000000000e+001	 2.63642e-006
178	 1.1062500000e+001	 2.13353e-006
179	 1.1125000000e+001	 1.86520e-006
180	 1.1187500000e+001	 2.06053e-006
181	 1.1250000000e+001	 2.49703e-006
182	 1.1312500000e+001	 1.73628e-006
183	 1.1375000000e+001	 1.76871e-006
184	 1.1437500000e+001	 1.69810e-006
185	 1.1500000000e+001	 1.60345e-006
186	 1.1562500000e+001	 1.43591e-006
187	 1.1625000000e+001	 2.27460e-006
188	 1.1687500000e+001	 1.35534e-006
189	 1.1750000000e+001	 2.06186e-006
190	 1.1812500000e+001	 1.77106e-006
191	 1.1875000000e+001	 2.57695e-006
192	 1.1937500000e+001	 2.35336e-006
193	 1.2000000000e+001	 3.41917e-006
194	 1.2062500000e+001	 3.51001e-006
195	 1.2125000000e+001	 4.44586e-006
196	 1.2187500000e+001	 4.92184e-006
197	 1.2250000000e+001	 5.57687e-006
198	 1.2312500000e+001	 6.43281e-006
199	 1.2375000000e+001	 7.38874e-006
200	 1.2437500000e+001	 8.33719e-006
201	 1.2500000000e+001	 9.49845e-006
202	 1.2562500000e+001	 1.04768e-005
203	 1.2625000000e+001	 1.13892e-005
204	 1.2687500000e+001	 1.31955e-005
205	 1.2750000000e+001	 1.34834e-005
206	 1.2812500000e+001	 1.58158e-005
207	 1.2875000000e+001	 1.67919e-005
208	 1.2937500000e+001	 1.62135e-005
209	 1.3000000000e+001	 1.81151e-005
210	 1.3062500000e+001	 1.95119e-005
211	 1.3125000000e+001	 2.02680e-005
212	 1.3187500000e+001	 2.02777e-005
213	 1.3250000000e+001	 2.28384e-005
214	 1.3312500000e+001	 2.15993e-005
215	 1.3375000000e+001	 2.47628e-005
216	 1.3437500000e+001	 2.46518e-005
217	 1.3500000000e+001	 2.50122e-005
218	 1.3562500000e+001	 2.60238e-005
219	 1.3625000000e+001	 2.53046e-005
220	 1.3687500000e+001	 2.60692e-005
221	 1.3750000000e+001	 2.50232e-005
222	 1.3812500000e+001	 2.60053e-005
223	 1.3875000000e+001	 2.56792e-005
224	 1.3937500000e+001	 2.35863e-005
225	 1.4000000000e+001	 2.28582e-005
226	 1.4062500000e+001	 2.02872e-005
227	 1.4125000000e+001	 1.92451e-005
228	 1.4187500000e+001	 1.64671e-005
229	 1.4250000000e+001	 1.20878e-005
230	 1.4312500000e+001	 9.31246e-006
231	 1.4375000000e+001	 5.09974e-006
232	 1.4437500000e+001	 2.72626e-006
233	 1.4500000000e+001	 2.39922e-006
234	 1.4562500000e+001	 4.92379e-006
235	 1.4625000000e+001	 9.88734e-006
236	 1.4687500000e+001	 1.53849e-005
237	 1.4750000000e+001	 1.46380e-005
238	 1.4812500000e+001	 1.11014e-005
239	 1.4875000000e+001	 9.60337e-006
240	 1.4937500000e+001	 1.00528e-005
241	 1.5000000000e+001	 1.02403e-005
242	 1.5062500000e+001	 1.04619e-005
243	 1.5125000000e+001	 1.01460e-005
244	 1.5187500000e+001	 1.07577e-005
245	 1.5250000000e+001	 1.05668e-005
246	 1.5312500000e+001	 1.09284e-005
247	 1.5375000000e+001	 1.11930e-005
248	 1.5437500000e+001	 1.08332e-005
249	 1.5500000000e+001	 1.12383e-005
250	 1.5562500000e+001	 1.10925e-005
251	 1.5625000000e+001	 1.16907e-005
252	 1.5687500000e+001	 1.06327e-005
253	 1.5750000000e+001	 1.05751e-005
254	 1.5812500000e+001	 1.08236e-005
255	 1.5875000000e+001	 1.01571e-005
256	 1.5937500000e+001	 9.98509e-006
257	 1.6000000000e+001	 9.71170e-006
258	 1.6062500000e+001	 8.77854e-006
259	 1.6125000000e+001	 8.31964e-006
260	 1.6187500000e+001	 7.61177e-006
261	 1.6250000000e+001	 7.14057e-006
262	 1.6312500000e+001	 6.78547e-006
263	 1.6375000000e+001	 6.67806e-006
264	 1.6437500000e+001	 6.15972e-006
265	 1.6500000000e+001	 5.69428e-006
266	 1.6562500000e+001	 5.63900e-006
267	 1.6625000000e+001	 4.97305e-006
268	 1.6687500000e+001	 4.78033e-006
269	 1.6750000000e+001	 4.69276e-006
270	 1.6812500000e+001	 4.68329e-006
271	 1.6875000000e+001	 4.49615e-006
272	 1.6937500000e+001	 4.27150e-006
273	 1.7000000000e+001	 4.30850e-006
274	 1.7062500000e+001	 4.39335e-006
275	 1.7125000000e+001	 4.40610e-006
276	 1.7187500000e+001	 4.04215e-006
277	 1.7250000000e+001	 4.47325e-006
278	 1.7312500000e+001	 3.97260e-006
279	 1.7375000000e+001	 4.63016e-006
280	 1.7437500000e+001	 4.20583e-006
281	 1.7500000000e+001	 4.57601e-006
282	 1.7562500000e+001	 4.22025e-006
283	 1.7625000000e+001	 4.49138e-006
284	 1.7687500000e+001	 4.30060e-006
285	 1.7750000000e+001	 4.37983e-006
286	 1.7812500000e+001	 3.98468e-006
287	 1.7875000000e+001	 3.70435e-006
288	 1.7937500000e+001	 3.87622e-006
289	 1.8000000000e+001	 3.54527e-006
290	 1.8062500000e+001	 3.68240e-006
291	 1.8125000000e+001	 3.34018e-006
292	 1.8187500000e+001	 3.40337e-006
293	 1.8250000000e+001	 3.34882e-006
294	 1.8312500000e+001	 3.28069e-006
295	 1.8375000000e+001	 3.18292e-006
296	 1.8437500000e+001	 3.26525e-006
297	 1.8500000000e+001	 3.05305e-006
298	 1.8562500000e+001	 3.03110e-006
299	 1.8625000000e+001	 3.24554e-006
300	 1.8687500000e+001	 3.26307e-006
301	 1.8750000000e+001	 2.96911e-006
302	 1.8812500000e+001	 3.10795e-006
303	 1.8875000000e+001	 3.00549e-006
304	 1.8937500000e+001	 3.08167e-006
305	 1.9000000000e+001	 3.20451e-006
306	 1.9062500000e+001	 2.92501e-006
307	 1.9125000000e+001	 2.94501e-006
308	 1.9187500000e+001	 3.06352e-006
309	 1.9250000000e+001	 3.09970e-006
310	 1.9312500000e+001	 3.04367e-006
311	 1.9375000000e+001	 2.96535e-006
312	 1.9437500000e+001	 3.06352e-006
313	 1.9500000000e+001	 2.93390e-006
314	 1.9562500000e+001	 3.00751e-006
315	 1.9625000000e+001	 3.21134e-006
316	 1.9687500000e+001	 3.37186e-006
317	 1.9750000000e+001	 3.18720e-006
318	 1.9812500000e+001	 3.16141e-006
319	 1.9875000000e+001	 3.03191e-006
320	 1.9937500000e+001	 3.08122e-006
321	 2.0000000000e+001	 3.27870e-006
322	 2.0062500000e+001	 3.09680e-006
323	 2.0125000000e+001	 3.19788e-006
324	 2.0187500000e+001	 3.21382e-006
325	 2.0250000000e+001	 2.84144e-006
326	 2.0312500000e+001	 2.97106e-006
327	 2.0375000000e+001	 2.58791e-006
328	 2.0437500000e+001	 2.39468e-006
329	 2.0500000000e+001	 2.20322e-006
330	 2.0562500000e+001	 2.10879e-006
331	 2.0625000000e+001	 1.89011e-006
332	 2.0687500000e+001	 1.48655e-006
333	 2.0750000000e+001	 1.36030e-006
334	 2.0812500000e+001	 9.99115e-007
335	 2.0875000000e+001	 8.80142e-007
336	 2.0937500000e+001	 7.79002e-007
337	 2.1000000000e+001	 4.55033e-007
338	 2.1062500000e+001	 5.05236e-007
339	 2.1125000000e+001	 2.93365e-007
340	 2.1187500000e+001	 3.14347e-007
341	 2.1250000000e+001	 2.61367e-007
342	 2.1312500000e+001	 3.87880e-007
343	 2.1375000000e+001	 3.98753e-007
344	 2.1437500000e+001	 4.62193e-007
345	 2.1500000000e+001	 5.19528e-007
346	 2.1562500000e+001	 7.73734e-007
347	 2.1625000000e+001	 9.58095e-007
348	 2.1687500000e+001	 1.16837e-006
349	 2.1750000000e+001	 1.18454e-006
350	 2.1812500000e+001	 9.58127e-007
351	 2.1875000000e+001	 9.09907e-007
352	 2.1937500000e+001	 9.93806e-007
353	 2.2000000000e+001	 1.55640e-006
354	 2.2062500000e+001	 1.89717e-006
355	 2.2125000000e+001	 1.91249e-006
356	 2.2187500000e+001	 2.04432e-006
357	 2.2250000000e+001	 2.12746e-006
358	 2.2312500000e+001	 2.22131e-006
359	 2.2375000000e+001	 2.02405e-006
360	 2.2437500000e+001	 2.15441e-006
361	 2.2500000000e+001	 2.11045e-006
362	 2.2562500000e+001	 1.95319e-006
363	 2.2625000000e+001	 1.97386e-006
364	 2.2687500000e+001	 1.89915e-006
365	 2.2750000000e+001	 1.77631e-006
366	 2.2812500000e+001	 1.82631e-006
367	 2.2875000000e+001	 1.53721e-006
368	 2.2937500000e+001	 1.52059e-006
369	 2.3000000000e+001	 1.49726e-006
370	 2.3062500000e+001	 1.43737e-006
371	 2.3125000000e+001	 1.41889e-006
372	 2.3187500000e+001	 1.40759e-006
373	 2.3250000000e+001	 1.41564e-006
374	 2.3312500000e+001	 1.25449e-006
375	 2.3375000000e+001	 1.33063e-006
376	 2.3437500000e+001	 1.38397e-006
377	 2.3500000000e+001	 1.37777e-006
378	 2.3562500000e+001	 1.41702e-006
379	 2.3625000000e+001	 1.18848e-006
380	 2.3687500000e+001	 1.35544e-006
381	 2.3750000000e+001	 1.28734e-006
382	 2.3812500000e+001	 1.33554e-006
383	 2.3875000000e+001	 1.36950e-006
384	 2.3937500000e+001	 1.35008e-006
385	 2.4000000000e+001	 1.26673e-006
386	 2.4062500000e+001	 1.19568e-006
387	 2.4125000000e+001	 1.30755e-006
388	 2.4187500000e+001	 1.23881e-006
389	 2.4250000000e+001	 1.24555e-006
390	 2.4312500000e+001	 1.02052e-006
391	 2.4375000000e+001	 1.18291e-006
392	 2.4437500000e+001	 9.75810e-007
393	 2.4500000000e+001	 1.05976e-006
394	 2.4562500000e+001	 9.92771e-007
395	 2.4625000000e+001	 9.22422e-007
396	 2.4687500000e+001	 9.79220e-007
397	 2.4750000000e+001	 8.69622e-007
398	 2.4812500000e+001	 8.88553e-007
399	 2.4875000000e+001	 9.07026e-007
400	 2.4937500000e+001	 8.10569e-007
401	 2.5000000000e+001	 8.57733e-007
402	 2.5062500000e+001	 8.65997e-007
403	 2.5125000000e+001	 8.92770e-007
404	 2.5187500000e+001	 8.31349e-007
405	 2.5250000000e+001	 8.98687e-007
406	 2.5312500000e+001	 8.60672e-007
407	 2.5375000000e+001	 8.33644e-007
408	 2.5437500000e+001	 8.96862e-007
409	 2.5500000000e+001	 8.12565e-007
410	 2.5562500000e+001	 8.96445e-007
411	 2.5625000000e+001	 9.10689e-007
412	 2.5687500000e+001	 9.32023e-007
413	 2.5750000000e+001	 8.88065e-007
414	 2.5812500000e+001	 8.99610e-007
415	 2.5875000000e+001	 9.50283e-007
416	 2.5937500000e+001	 9.95371e-007
417	 2.6000000000e+001	 9.42059e-007
418	 2.6062500000e+001	 9.57805e-007
419	 2.6125000000e+001	 9.78526e-007
420	 2.6187500000e+001	 1.02194e-006
421	 2.6250000000e+001	 1.11324e-006
422	 2.6312500000e+001	 9.74432e-007
423	 2.6375000000e+001	 1.07088e-006
424	 2.6437500000e+001	 1.15109e-006
425	 2.6500000000e+001	 1.02819e-006
426	 2.6562500000e+001	 1.16250e-006
427	 2.6625000000e+001	 1.32077e-006
428	 2.6687500000e+001	 1.01994e-006
429	 2.6750000000e+001	 1.24659e-006
430	 2.6812500000e+001	 1.24809e-006
431	 2.6875000000e+001	 1.22688e-006
432	 2.6937500000e+001	 1.22198e-006
433	 2.7000000000e+001	 1.18265e-006
434	 2.7062500000e+001	 1.15189e-006
435	 2.7125000000e+001	 1.11888e-006
436	 2.7187500000e+001	 1.16269e-006
437	 2.7250000000e+001	 1.15315e-006
438	 2.7312500000e+001	 9.91182e-007
439	 2.7375000000e+001	 1.03743e-006
440	 2.7437500000e+001	 9.32365e-007
441	 2.7500000000e+001	 8.39490e-007
442	 2.7562500000e+001	 9.11855e-007
443	 2.7625000000e+001	 8.38660e-007
444	 2.7687500000e+001	 7.54302e-007
445	 2.7750000000e+001	 7.64335e-007
446	 2.7812500000e+001	 6.84174e-007
447	 2.7875000000e+001	 6.94408e-007
448	 2.7937500000e+001	 6.80566e-007
449	 2.8000000000e+001	 7.07122e-007
450	 2.8062500000e+001	 6.42740e-007
451	 2.8125000000e+001	 6.85240e-007
452	 2.8187500000e+001	 5.61379e-007
453	 2.8250000000e+001	 7.15930e-007
454	 2.8312500000e+001	 6.53991e-007
455	 2.8375000000e+001	 7.53008e-007
456	 2.8437500000e+001	 7.50377e-007
457	 2.8500000000e+001	 7.06194e-007
458	 2.8562500000e+001	 7.71794e-007
459	 2.8625000000e+001	 8.86750e-007
460	 2.8687500000e+001	 7.93571e-007
461	 2.8750000000e+001	 8.20401e-007
462	 2.8812500000e+001	 7.85606e-007
463	 2.8875000000e+001	 9.36860e-007
464	 2.8937500000e+001	 8.67513e-007
465	 2.9000000000e+001	 8.26814e-007
466	 2.9062500000e+001	 8.44955e-007
467	 2.9125000000e+001	 7.91008e-007
468	 2.9187500000e+001	 8.27087e-007
469	 2.9250000000e+001	 7.64482e-007
470	 2.9312500000e+001	 8.36547e-007
471	 2.9375000000e+001	 7.21025e-007
472	 2.9437500000e+001	 7.38712e-007
473	 2.9500000000e+001	 8.02144e-007
474	 2.9562500000e+001	 7.18093e-007
475	 2.9625000000e+001	 6.55365e-007
476	 2.9687500000e+001	 6.78328e-007
477	 2.9750000000e+001	 6.94652e-007
478	 2.9812500000e+001	 6.86428e-007
479	 2.9875000000e+001	 6.74304e-007
480	 2.9937500000e+001	 5.93304e-007
481	 3.0000000000e+001	 7.56998e-007
482	 3.0062500000e+001	 6.79064e-007
483	 3.0125000000e+001	 6.87597e-007
484	 3.0187500000e+001	 7.08650e-007
485	 3.0250000000e+001	 6.75311e-007
486	 3.0312500000e+001	 6.67952e-007
487	 3.0375000000e+001	 7.31797e-007
488	 3.0437500000e+001	 7.37136e-007
489	 3.0500000000e+001	 7.53262e-007
490	 3.0562500000e+001	 7.17859e-007
491	 3.0625000000e+001	 6.85126e-007
492	 3.0687500000e+001	 7.87363e-007
493	 3.0750000000e+001	 7.85114e-007
494	 3.0812500000e+001	 7.03282e-007
495	 3.0875000000e+001	 7.60215e-007
496	 3.0937500000e+001	 7.99064e-007
497	 3.1000000000e+001	 7.42730e-007
498	 3.1062500000e+001	 7.47243e-007
499	 3.1125000000e+001	 8.03383e-007
500	 3.1187500000e+001	 7.81770e-007
501	 3.1250000000e+001	 8.04737e-007
502	 3.1312500000e+001	 7.48096e-007
503	 3.1375000000e+001	 8.01144e-007
504	 3.1437500000e+001	 7.40994e-007
505	 3.1500000000e+001	 7.89725e-007
506	 3.1562500000e+001	 7.35485e-007
507	 3.1625000000e+001	 8.06554e-007
508	 3.1687500000e+001	 7.91216e-007
509	 3.1750000000e+001	 7.43412e-007
510	 3.1812500000e+001	 7.90556e-007
511	 3.1875000000e+001	 7.55807e-007
512	 3.1937500000e+001	 8.06412e-007
513	 3.2000000000e+001	 7.31067e-007
514	 3.2062500000e+001	 8.10768e-007
515	 3.2125000000e+001	 6.63157e-007
516	 3.2187500000e+001	 8.37431e-007
517	 3.2250000000e+001	 7.31990e-007
518	 3.2312500000e+001	 7.40119e-007
519	 3.2375000000e+001	 6.59777e-007
520	 3.2437500000e+001	 7.92436e-007
521	 3.2500000000e+001	 7.08158e-007
522	 3.2562500000e+001	 6.97609e-007
523	 3.2625000000e+001	 7.09497e-007
524	 3.2687500000e+001	 6.75036e-007
525	 3.2750000000e+001	 7.35234e-007
526	 3.2812500000e+001	 7.30444e-007
527	 3.2875000000e+001	 6.77396e-007
528	 3.2937500000e+001	 7.35897e-007
529	 3.3000000000e+001	 6.67285e-007
530	 3.3062500000e+001	 6.40657e-007
531	 3.3125000000e+001	 7.80992e-007
532	 3.3187500000e+001	 5.97253e-007
533	 3.3250000000e+001	 6.60394e-007
534	 3.3312500000e+001	 6.65526e-007
535	 3.3375000000e+001	 6.48636e-007
536	 3.3437500000e+001	 6.32640e-007
537	 3.3500000000e+001	 6.26335e-007
538	 3.3562500000e+001	 5.72501e-007
539	 3.3625000000e+001	 6.30797e-007
540	 3.3687500000e+001	 6.33629e-007
541	 3.3750000000e+001	 6.59360e-007
542	 3.3812500000e+001	 5.70194e-007
543	 3.3875000000e+001	 5.49517e-007
544	 3.3937500000e+001	 5.32090e-007
545	 3.4000000000e+001	 6.10845e-007
546	 3.4062500000e+001	 5.63749e-007
547	 3.4125000000e+001	 5.95849e-007
548	 3.4187500000e+001	 5.81731e-007
549	 3.4250000000e+001	 5.40253e-007
550	 3.4312500000e+001	 5.16242e-007
551	 3.4375000000e+001	 5.59847e-007
552	 3.4437500000e+001	 5.58703e-007
553	 3.4500000000e+001	 5.61456e-007
554	 3.4562500000e+001	 5.27675e-007
555	 3.4625000000e+001	 5.77404e-007
556	 3.4687500000e+001	 5.91462e-007
557	 3.4750000000e+001	 5.64890e-007
558	 3.4812500000e+001	 5.82301e-007
559	 3.4875000000e+001	 6.00861e-007
560	 3.4937500000e+001	 5.92844e-007
561	 3.5000000000e+001	 5.72061e-007
562	 3.5062500000e+001	 5.84447e-007
563	 3.5125000000e+001	 5.74408e-007
564	 3.5187500000e+001	 6.04487e-007
565	 3.5250000000e+001	 6.21914e-007
566	 3.5312500000e+001	 5.57371e-007
567	 3.5375000000e+001	 6.72057e-007
568	 3.5437500000e+001	 5.39758e-007
569	 3.5500000000e+001	 6.50414e-007
570	 3.5562500000e+001	 6.18133e-007
571	 3.5625000000e+001	 5.22018e-007
572	 3.5687500000e+001	 5.85119e-007
573	 3.5750000000e+001	 5.86757e-007
574	 3.5812500000e+001	 5.48565e-007
575	 3.5875000000e+001	 5.77954e-007
576	 3.5937500000e+001	 4.84531e-007
577	 3.6000000000e+001	 5.49168e-007
578	 3.6062500000e+001	 5.79720e-007
579	 3.6125000000e+001	 5.91273e-007
580	 3.6187500000e+001	 6.19300e-007
581	 3.6250000000e+001	 5.94111e-007
582	 3.6312500000e+001	 5.88209e-007
583	 3.6375000000e+001	 5.53771e-007
584	 3.6437500000e+001	 5.42028e-007
585	 3.6500000000e+001	 5.36919e-007
586	 3.6562500000e+001	 4.95944e-007
587	 3.6625000000e+001	 5.53306e-007
588	 3.6687500000e+001	 5.26599e-007
589	 3.6750000000e+001	 5.58744e-007
590	 3.6812500000e+001	 5.19632e-007
591	 3.6875000000e+001	 5.86683e-007
592	 3.6937500000e+001	 4.90025e-007
593	 3.7000000000e+001	 5.00851e-007
594	 3.7062500000e+001	 5.30305e-007
595	 3.7125000000e+001	 5.41501e-007
596	 3.7187500000e+001	 4.82018e-007
597	 3.7250000000e+001	 5.10498e-007
598	 3.7312500000e+001	 4.42557e-007
599	 3.7375000000e+001	 5.16327e-007
600	 3.7437500000e+001	 4.63537e-007
601	 3.7500000000e+001	 4.40531e-007
602	 3.7562500000e+001	 5.00934e-007
603	 3.7625000000e+001	 4.31601e-007
604	 3.7687500000e+001	 4.59824e-007
605	 3.7750000000e+001	 3.98697e-007
606	 3.7812500000e+001	 4.64838e-007
607	 3.7875000000e+001	 4.62163e-007
608	 3.7937500000e+001	 4.67363e-007
609	 3.8000000000e+001	 4.55995e-007
610	 3.8062500000e+001	 4.00220e-007
611	 3.8125000000e+001	 4.41911e-007
612	 3.8187500000e+001	 4.59727e-007
613	 3.8250000000e+001	 4.53179e-007
614	 3.8312500000e+001	 4.52594e-007
615	 3.8375000000e+001	 4.18749e-007
616	 3.8437500000e+001	 4.66363e-007
617	 3.8500000000e+001	 4.42686e-007
618	 3.8562500000e+001	 4.71091e-007
619	 3.8625000000e+001	 4.88224e-007
620	 3.8687500000e+001	 4.16601e-007
621	 3.8750000000e+001	 5.11533e-007
622	 3.8812500000e+001	 4.25411e-007
623	 3.8875000000e+001	 4.44115e-007
624	 3.8937500000e+001	 4.86755e-007
625	 3.9000000000e+001	 4.64070e-007
626	 3.9062500000e+001	 4.26135e-007
627	 3.9125000000e+001	 4.61963e-007
628	 3.9187500000e+001	 4.13661e-007
629	 3.9250000000e+001	 4.30105e-007
630	 3.9312500000e+001	 4.40124e-007
631	 3.9375000000e+001	 4.03518e-007
632	 3.9437500000e+001	 4.00412e-007
633	 3.9500000000e+001	 4.17070e-007
634	 3.9562500000e+001	 3.79179e-007
635	 3.9625000000e+001	 4.22310e-007
636	 3.9687500000e+001	 4.05515e-007
637	 3.9750000000e+001	 3.83715e-007
638	 3.9812500000e+001	 3.78318e-007
639	 3.9875000000e+001	 3.99966e-007
640	 3.9937500000e+001	 3.42460e-007
641	 4.0000000000e+001	 3.90335e-007
642	 4.0062500000e+001	 3.42813e-007
643	 4.0125000000e+001	 4.10543e-007
644	 4.0187500000e+001	 3.32137e-007
645	 4.0250000000e+001	 3.45992e-007
646	 4.0312500000e+001	 3.71169e-007
647	 4.0375000000e+001	 3.41665e-007
648	 4.0437500000e+001	 3.50533e-007
649	 4.0500000000e+001	 3.51385e-007
650	 4.0562500000e+001	 3.20233e-007
651	 4.0625000000e+001	 3.52577e-007
652	 4.0687500000e+001	 3.70905e-007
653	 4.0750000000e+001	 3.40401e-007
654	 4.0812500000e+001	 3.82493e-007
655	 4.0875000000e+001	 3.69949e-007
656	 4.0937500000e+001	 3.57816e-007
657	 4.1000000000e+001	 3.64839e-007
658	 4.1062500000e+001	 3.77111e-007
659	 4.1125000000e+001	 3.75308e-007
660	 4.1187500000e+001	 3.74274e-007
661	 4.1250000000e+001	 3.95621e-007
662	 4.1312500000e+001	 3.94167e-007
663	 4.1375000000e+001	 3.77802e-007
664	 4.1437500000e+001	 3.54423e-007
665	 4.1500000000e+001	 4.09858e-007
666	 4.1562500000e+001	 3.80008e-007
667	 4.1625000000e+001	 4.27588e-007
668	 4.1687500000e+001	 3.74584e-007
669	 4.1750000000e+001	 3.68874e-007
670	 4.1812500000e+001	 3.60326e-007
671	 4.1875000000e+001	 3.86862e-007
672	 4.1937500000e+001	 3.39516e-007
673	 4.2000000000e+001	 3.60964e-007
674	 4.2062500000e+001	 3.39147e-007
675	 4.2125000000e+001	 3.05550e-007
676	 4.2187500000e+001	 3.41398e-007
677	 4.2250000000e+001	 2.91239e-007
678	 4.2312500000e+001	 3.28543e-007
679	 4.2375000000e+001	 3.07037e-007
680	 4.2437500000e+001	 3.26380e-007
681	 4.2500000000e+001	 2.91286e-007
682	 4.2562500000e+001	 2.75540e-007
683	 4.2625000000e+001	 3.07298e-007
684	 4.2687500000e+001	 2.88447e-007
685	 4.2750000000e+001	 3.04820e-007
686	 4.2812500000e+001	 3.39889e-007
687	 4.2875000000e+001	 2.96548e-007
688	 4.2937500000e+001	 2.87924e-007
689	 4.3000000000e+001	 3.09345e-007
690	 4.3062500000e+001	 3.28268e-007
691	 4.3125000000e+001	 3.18234e-007
692	 4.3187500000e+001	 3.11956e-007
693	 4.3250000000e+001	 3.50459e-007
694	 4.3312500000e+001	 3.28542e-007
695	 4.3375000000e+001	 3.77816e-007
696	 4.3437500000e+001	 3.39433e-007
697	 4.3500000000e+001	 3.31778e-007
698	 4.3562500000e+001	 3.46398e-007
699	 4.3625000000e+001	 3.69920e-007
700	 4.3687500000e+001	 3.29207e-007
701	 4.3750000000e+001	 3.68628e-007
702	 4.3812500000e+001	 3.46543e-007
703	 4.3875000000e+001	 3.17189e-007
704	 4.3937500000e+001	 3.31332e-007
705	 4.4000000000e+001	 3.40443e-007
706	 4.4062500000e+001	 3.18457e-007
707	 4.4125000000e+001	 2.97426e-007
708	 4.4187500000e+001	 3.19590e-007
709	 4.4250000000e+001	 2.84485e-007
710	 4.4312500000e+001	 3.03087e-007
711	 4.4375000000e+001	 2.93708e-007
712	 4.4437500000e+001	 3.08593e-007
713	 4.4500000000e+001	 2.71066e-007
714	 4.4562500000e+001	 2.69399e-007
715	 4.4625000000e+001	 2.91143e-007
716	 4.4687500000e+001	 2.99841e-007
717	 4.4750000000e+001	 3.04230e-007
718	 4.4812500000e+001	 2.80760e-007
719	 4.4875000000e+001	 2.93694e-007
720	 4.4937500000e+001	 2.78715e-007
721	 4.5000000000e+001	 3.09130e-007
722	 4.5062500000e+001	 2.82267e-007
723	 4.5125000000e+001	 2.71606e-007
724	 4.5187500000e+001	 3.02343e-007
725	 4.5250000000e+001	 2.91129e-007
726	 4.5312500000e+001	 2.91174e-007
727	 4.5375000000e+001	 2.96281e-007
728	 4.5437500000e+001	 2.98334e-007
729	 4.5500000000e+001	 2.70205e-007
730	 4.5562500000e+001	 3.00578e-007
731	 4.5625000000e+001	 3.16747e-007
732	 4.5687500000e+001	 2.99858e-007
733	 4.5750000000e+001	 2.78233e-007
734	 4.5812500000e+001	 3.14599e-007
735	 4.5875000000e+001	 3.03906e-007
736	 4.5937500000e+001	 2.74822e-007
737	 4.6000000000e+001	 3.11879e-007
738	 4.6062500000e+001	 2.95456e-007
739	 4.6125000000e+001	 2.89131e-007
740	 4.6187500000e+001	 3.11396e-007
741	 4.6250000000e+001	 2.86726e-007
742	 4.6312500000e+001	 2.96479e-007
743	 4.6375000000e+001	 2.60635e-007
744	 4.6437500000e+001	 3.22770e-007
745	 4.6500000000e+001	 2.64848e-007
746	 4.6562500000e+001	 3.32741e-007
747	 4.6625000000e+001	 2.89602e-007
748	 4.6687500000e+001	 2.83491e-007
749	 4.6750000000e+001	 2.94414e-007
750	 4.6812500000e+001	 2.93822e-007
751	 4.6875000000e+001	 2.83686e-007
752	 4.6937500000e+001	 3.14720e-007
753	 4.7000000000e+001	 2.55756e-007
754	 4.7062500000e+001	 3.25712e-007
755	 4.7125000000e+001	 2.70256e-007
756	 4.7187500000e+001	 3.30014e-007
757	 4.7250000000e+001	 2.81521e-007
758	 4.7312500000e+001	 2.76771e-007
759	 4.7375000000e+001	 3.09636e-007
760	 4.7437500000e+001	 3.18419e-007
761	 4.7500000000e+001	 2.94188e-007
762	 4.7562500000e+001	 2.98128e-007
763	 4.7625000000e+001	 3.33692e-007
764	 4.7687500000e+001	 2.52328e-007
765	 4.7750000000e+001	 3.58776e-007
766	 4.7812500000e+001	 2.93774e-007
767	 4.7875000000e+001	 2.96374e-007
768	 4.7937500000e+001	 3.10155e-007
769	 4.8000000000e+001	 3.12470e-007
770	 4.8062500000e+001	 3.37744e-007
771	 4.8125000000e+001	 2.83729e-007
772	 4.8187500000e+001	 3.36886e-007
773	 4.8250000000e+001	 2.89299e-007
774	 4.8312500000e+001	 2.89577e-007
775	 4.8375000000e+001	 2.95393e-007
776	 4.8437500000e+001	 3.27095e-007
777	 4.8500000000e+001	 2.77052e-007
778	 4.8562500000e+001	 2.92901e-007
779	 4.8625000000e+001	 2.88255e-007
780	 4.8687500000e+001	 2.88656e-007
781	 4.8750000000e+001	 2.86916e-007
782	 4.8812500000e+001	 2.68760e-007
783	 4.8875000000e+001	 2.60601e-007
784	 4.8937500000e+001	 2.86152e-007
785	 4.9000000000e+001	 2.68178e-007
786	 4.9062500000e+001	 2.39228e-007
787	 4.9125000000e+001	 2.41489e-007
788	 4.9187500000e+001	 2.61600e-007
789	 4.9250000000e+001	 2.34425e-007
790	 4.9312500000e+001	 2.32228e-007
791	 4.9375000000e+001	 2.46367e-007
792	 4.9437500000e+001	 2.24725e-007
793	 4.9500000000e+001	 2.33232e-007
794	 4.9562500000e+001	 2.66054e-007
795	 4.9625000000e+001	 2.33948e-007
796	 4.9687500000e+001	 2.62101e-007
797	 4.9750000000e+001	 2.38817e-007
798	 4.9812500000e+001	 2.44990e-007
799	 4.9875000000e+001	 2.88956e-007
800	 4.9937500000e+001	 2.40549e-007
801	 5.0000000000e+001	 2.72284e-007
802	 5.0062500000e+001	 2.84402e-007
803	 5.0125000000e+001	 2.64088e-007
804	 5.0187500000e+001	 2.51941e-007
805	 5.0250000000e+001	 2.92873e-007
806	 5.0312500000e+001	 2.38954e-007
807	 5.0375000000e+001	 2.37918e-007
808	 5.0437500000e+001	 2.87934e-007
809	 5.0500000000e+001	 2.74903e-007
810	 5.0562500000e+001	 2.67527e-007
811	 5.0625000000e+001	 2.73614e-007
812	 5.0687500000e+001	 2.83404e-007
813	 5.0750000000e+001	 2.45649e-007
814	 5.0812500000e+001	 2.74399e-007
815	 5.0875000000e+001	 2.39179e-007
816	 5.0937500000e+001	 2.65359e-007
817	 5.1000000000e+001	 2.37381e-007
818	 5.1062500000e+001	 2.42546e-007
819	 5.1125000000e+001	 2.79181e-007
820	 5.1187500000e+001	 2.12561e-007
821	 5.1250000000e+001	 2.44012e-007
822	 5.1312500000e+001	 2.33781e-007
823	 5.1375000000e+001	 2.66246e-007
824	 5.1437500000e+001	 2.46751e-007
825	 5.1500000000e+001	 2.03000e-007
826	 5.1562500000e+001	 2.50499e-007
827	 5.1625000000e+001	 2.58255e-007
828	 5.1687500000e+001	 2.22344e-007
829	 5.1750000000e+001	 2.25738e-007
830	 5.1812500000e+001	 2.35464e-007
831	 5.1875000000e+001	 2.43152e-007
832	 5.1937500000e+001	 2.07577e-007
833	 5.2000000000e+001	 2.48185e-007
834	 5.2062500000e+001	 2.07077e-007
835	 5.2125000000e+001	 2.25261e-007
836	 5.2187500000e+001	 2.19008e-007
837	 5.2250000000e+001	 2.03816e-007
838	 5.2312500000e+001	 2.44291e-007
839	 5.2375000000e+001	 2.19092e-007
840	 5.2437500000e+001	 2.16050e-007
841	 5.2500000000e+001	 2.01585e-007
842	 5.2562500000e+001	 2.33814e-007
843	 5.2625000000e+001	 1.94607e-007
844	 5.2687500000e+001	 2.18267e-007
845	 5.2750000000e+001	 2.31925e-007
846	 5.2812500000e+001	 2.24289e-007
847	 5.2875000000e+001	 2.04510e-007
848	 5.2937500000e+001	 2.11920e-007
849	 5.3000000000e+001	 2.22943e-007
850	 5.3062500000e+001	 2.19597e-007
851	 5.3125000000e+001	 1.97033e-007
852	 5.3187500000e+001	 2.60743e-007
853	 5.3250000000e+001	 1.95047e-007
854	 5.3312500000e+001	 2.09516e-007
855	 5.3375000000e+001	 2.06893e-007
856	 5.3437500000e+001	 2.36348e-007
857	 5.3500000000e+001	 2.01371e-007
858	 5.3562500000e+001	 2.26443e-007
859	 5.3625000000e+001	 2.47471e-007
860	 5.3687500000e+001	 2.15585e-007
861	 5.3750000000e+001	 2.14508e-007
862	 5.3812500000e+001	 2.22369e-007
863	 5.3875000000e+001	 2.20110e-007
864	 5.3937500000e+001	 1.99942e-007
865	 5.4000000000e+001	 2.17124e-007
866	 5.4062500000e+001	 2.34992e-007
867	 5.4125000000e+001	 2.19746e-007
868	 5.4187500000e+001	 2.15561e-007
869	 5.4250000000e+001	 1.98626e-007
870	 5.4312500000e+001	 2.39565e-007
871	 5.4375000000e+001	 2.03023e-007
872	 5.4437500000e+001	 2.25502e-007
873	 5.4500000000e+001	 2.14335e-007
874	 5.4562500000e+001	 2.31254e-007
875	 5.4625000000e+001	 2.13165e-007
876	 5.4687500000e+001	 2.12230e-007
877	 5.4750000000e+001	 2.38544e-007
878	 5.4812500000e+001	 1.87285e-007
879	 5.4875000000e+001	 2.24687e-007
880	 5.4937500000e+001	 2.00534e-007
881	 5.5000000000e+001	 2.24032e-007
882	 5.5062500000e+001	 2.05928e-007
883	 5.5125000000e+001	 2.04763e-007
884	 5.5187500000e+001	 1.89646e-007
885	 5.5250000000e+001	 2.04173e-007
886	 5.5312500000e+001	 1.91384e-007
887	 5.5375000000e+001	 2.24000e-007
888	 5.5437500000e+001	 1.80657e-007
889	 5.5500000000e+001	 2.13407e-007
890	 5.5562500000e+001	 1.89327e-007
891	 5.5625000000e+001	 1.94811e-007
892	 5.5687500000e+001	 1.96527e-007
893	 5.5750000000e+001	 1.70029e-007
894	 5.5812500000e+001	 1.90755e-007
895	 5.5875000000e+001	 1.85280e-007
896	 5.5937500000e+001	 2.12779e-007
897	 5.6000000000e+001	 1.42507e-007
898	 5.6062500000e+001	 2.07532e-007
899	 5.6125000000e+001	 1.87749e-007
900	 5.6187500000e+001	 1.77936e-007
901	 5.6250000000e+001	 1.79684e-007
902	 5.6312500000e+001	 1.85695e-007
903	 5.6375000000e+001	 1.86616e-007
904	 5.6437500000e+001	 1.87654e-007
905	 5.6500000000e+001	 1.80835e-007
906	 5.6562500000e+001	 1.82299e-007
907	 5.6625000000e+001	 1.78181e-007
908	 5.6687500000e+001	 2.02172e-007
909	 5.6750000000e+001	 1.87834e-007
910	 5.6812500000e+001	 1.77106e-007
911	 5.6875000000e+001	 1.80644e-007
912	 5.6937500000e+001	 1.89910e-007
913	 5.7000000000e+001	 1.99352e-007
914	 5.7062500000e+001	 1.57331e-007
915	 5.7125000000e+001	 2.28426e-007
916	 5.7187500000e+001	 1.66077e-007
917	 5.7250000000e+001	 1.73490e-007
918	 5.7312500000e+001	 1.98025e-007
919	 5.7375000000e+001	 1.93825e-007
920	 5.7437500000e+001	 1.81514e-007
921	 5.7500000000e+001	 2.08737e-007
922	 5.7562500000e+001	 1.58967e-007
923	 5.7625000000e+001	 1.83535e-007
924	 5.7687500000e+001	 1.83510e-007
925	 5.7750000000e+001	 1.89201e-007
926	 5.7812500000e+001	 1.87132e-007
927	 5.7875000000e+001	 1.73375e-007
928	 5.7937500000e+001	 1.86267e-007
929	 5.8000000000e+001	 1.89238e-007
930	 5.8062500000e+001	 1.75517e-007
931	 5.8125000000e+001	 1.94146e-007
932	 5.8187500000e+001	 1.78445e-007
933	 5.8250000000e+001	 1.71171e-007
934	 5.8312500000e+001	 1.84245e-007
935	 5.8375000000e+001	 1.94595e-007
936	 5.8437500000e+001	 1.80285e-007
937	 5.8500000000e+001	 1.78163e-007
938	 5.8562500000e+001	 1.70516e-007
939	 5.8625000000e+001	 2.00810e-007
940	 5.8687500000e+001	 1.55349e-007
941	 5.8750000000e+001	 1.90498e-007
942	 5.8812500000e+001	 1.80809e-007
943	 5.8875000000e+001	 1.69499e-007
944	 5.8937500000e+001	 1.77090e-007
945	 5.9000000000e+001	 1.73684e-007
946	 5.9062500000e+001	 1.61316e-007
947	 5.9125000000e+001	 1.79770e-007
948	 5.9187500000e+001	 1.70239e-007
949	 5.9250000000e+001	 1.90659e-007
950	 5.9312500000e+001	 1.70209e-007
951	 5.9375000000e+001	 1.70438e-007
952	 5.9437500000e+001	 1.56523e-007
953	 5.9500000000e+001	 1.60562e-007
954	 5.9562500000e+001	 1.73323e-007
955	 5.9625000000e+001	 1.94176e-007
956	 5.9687500000e+001	 1.61042e-007
957	 5.9750000000e+001	 1.75074e-007
958	 5.9812500000e+001	 1.39866e-007
959	 5.9875000000e+001	 1.97315e-007
960	 5.9937500000e+001	 1.33973e-007
961	 6.0000000000e+001	 2.10076e-007
962	 6.0062500000e+001	 1.43588e-007
963	 6.0125000000e+001	 1.72046e-007
964	 6.0187500000e+001	 1.77142e-007
965	 6.0250000000e+001	 1.65328e-007
966	 6.0312500000e+001	 1.53314e-007
967	 6.0375000000e+001	 1.70106e-007
968	 6.0437500000e+001	 1.60108e-007
969	 6.0500000000e+001	 1.72682e-007
970	 6.0562500000e+001	 1.69733e-007
971	 6.0625000000e+001	 1.65825e-007
972	 6.0687500000e+001	 1.65641e-007
973	 6.0750000000e+001	 1.66097e-007
974	 6.0812500000e+001	 1.62272e-007
975	 6.0875000000e+001	 1.64680e-007
976	 6.0937500000e+001	 1.76672e-007
977	 6.1000000000e+001	 1.55730e-007
978	 6.1062500000e+001	 1.87515e-007
979	 6.1125000000e+001	 1.52867e-007
980	 6.1187500000e+001	 1.61463e-007
981	 6.1250000000e+001	 1.75334e-007
982	 6.1312500000e+001	 1.50288e-007
983	 6.1375000000e+001	 1.71796e-007
984	 6.1437500000e+001	 1.67046e-007
985	 6.1500000000e+001	 1.70372e-007
986	 6.1562500000e+001	 1.55510e-007
987	 6.1625000000e+001	 1.70892e-007
988	 6.1687500000e+001	 1.51516e-007
989	 6.1750000000e+001	 1.70039e-007
990	 6.1812500000e+001	 1.43667e-007
991	 6.1875000000e+001	 1.87937e-007
992	 6.1937500000e+001	 1.37492e-007
993	 6.2000000000e+001	 1.55964e-007
994	 6.2062500000e+001	 1.63969e-007
995	 6.2125000000e+001	 1.40815e-007
996	 6.2187500000e+001	 1.73451e-007
997	 6.2250000000e+001	 1.46731e-007
998	 6.2312500000e+001	 1.51498e-007
999	 6.2375000000e+001	 1.45555e-007
1000	 6.2437500000e+001	 1.60577e-007
1001	 6.2500000000e+001	 1.56894e-007
1002	 6.2562500000e+001	 1.53926e-007
1003	 6.2625000000e+001	 1.41808e-007
1004	 6.2687500000e+001	 1.44813e-007
1005	 6.2750000000e+001	 1.57655e-007
1006	 6.2812500000e+001	 1.53023e-007
1007	 6.2875000000e+001	 1.31715e-007
1008	 6.2937500000e+001	 1.63850e-007
1009	 6.3000000000e+001	 1.51001e-007
1010	 6.3062500000e+001	 1.59755e-007
1011	 6.3125000000e+001	 1.39674e-007
1012	 6.3187500000e+001	 1.44518e-007
1013	 6.3250000000e+001	 1.47614e-007
1014	 6.3312500000e+001	 1.54914e-007
1015	 6.3375000000e+001	 1.43022e-007
1016	 6.3437500000e+001	 1.37109e-007
1017	 6.3500000000e+001	 1.62080e-007
1018	 6.3562500000e+001	 1.24583e-007
1019	 6.3625000000e+001	 1.59880e-007
1020	 6.3687500000e+001	 1.41572e-007
1021	 6.3750000000e+001	 1.48408e-007
1022	 6.3812500000e+001	 1.22250e-007
1023	 6.3875000000e+001	 1.49258e-007
1024	 6.3937500000e+001	 1.51737e-007
1025	 6.4000000000e+001	 1.30999e-007
1026	 6.4062500000e+001	 1.57426e-007
1027	 6.4125000000e+001	 1.45570e-007
1028	 6.4187500000e+001	 1.51777e-007
1029	 6.4250000000e+001	 1.33528e-007
1030	 6.4312500000e+001	 1.52565e-007
1031	 6.4375000000e+001	 1.32773e-007
1032	 6.4437500000e+001	 1.59336e-007
1033	 6.4500000000e+001	 1.39731e-007
1034	 6.4562500000e+001	 1.36138e-007
1035	 6.4625000000e+001	 1.65883e-007
1036	 6.4687500000e+001	 1.30864e-007
1037	 6.4750000000e+001	 1.35803e-007
1038	 6.4812500000e+001	 1.53875e-007
1039	 6.4875000000e+001	 1.39886e-007
1040	 6.4937500000e+001	 1.48124e-007
1041	 6.5000000000e+001	 1.32057e-007
1042	 6.5062500000e+001	 1.71325e-007
1043	 6.5125000000e+001	 1.34963e-007
1044	 6.5187500000e+001	 1.46593e-007
1045	 6.5250000000e+001	 1.26416e-007
1046	 6.5312500000e+001	 1.42201e-007
1047	 6.5375000000e+001	 1.44510e-007
1048	 6.5437500000e+001	 1.44365e-007
1049	 6.5500000000e+001	 1.36658e-007
1050	 6.5562500000e+001	 1.41302e-007
1051	 6.5625000000e+001	 1.22393e-007
1052	 6.5687500000e+001	 1.55305e-007
1053	 6.5750000000e+001	 1.25523e-007
1054	 6.5812500000e+001	 1.34839e-007
1055	 6.5875000000e+001	 1.44109e-007
1056	 6.5937500000e+001	 1.24038e-007
1057	 6.6000000000e+001	 1.37782e-007
1058	 6.6062500000e+001	 1.36863e-007
1059	 6.6125000000e+001	 1.48137e-007
1060	 6.6187500000e+001	 1.23212e-007
1061	 6.6250000000e+001	 1.41414e-007
1062	 6.6312500000e+001	 1.36047e-007
1063	 6.6375000000e+001	 1.43268e-007
1064	 6.6437500000e+001	 1.38271e-007
1065	 6.6500000000e+001	 1.23626e-007
1066	 6.6562500000e+001	 1.46546e-007
1067	 6.6625000000e+001	 1.20243e-007
1068	 6.6687500000e+001	 1.26569e-007
1069	 6.6750000000e+001	 1.49036e-007
1070	 6.6812500000e+001	 1.35446e-007
1071	 6.6875000000e+001	 1.30151e-007
1072	 6.6937500000e+001	 1.54244e-007
1073	 6.7000000000e+001	 1.12410e-007
1074	 6.7062500000e+001	 1.46415e-007
1075	 6.7125000000e+001	 1.20164e-007
1076	 6.7187500000e+001	 1.34304e-007
1077	 6.7250000000e+001	 1.25319e-007
1078	 6.7312500000e+001	 1.51688e-007
1079	 6.7375000000e+001	 1.18810e-007
1080	 6.7437500000e+001	 1.28829e-007
1081	 6.7500000000e+001	 1.30678e-007
1082	 6.7562500000e+001	 1.30954e-007
1083	 6.7625000000e+001	 1.21664e-007
1084	 6.7687500000e+001	 1.41962e-007
1085	 6.7750000000e+001	 1.23467e-007
1086	 6.7812500000e+001	 1.26257e-007
1087	 6.7875000000e+001	 1.24183e-007
1088	 6.7937500000e+001	 1.31771e-007
1089	 6.8000000000e+001	 1.24898e-007
1090	 6.8062500000e+001	 1.34910e-007
1091	 6.8125000000e+001	 1.28932e-007
1092	 6.8187500000e+001	 1.22054e-007
1093	 6.8250000000e+001	 1.37406e-007
1094	 6.8312500000e+001	 1.25089e-007
1095	 6.8375000000e+001	 1.27104e-007
1096	 6.8437500000e+001	 1.30487e-007
1097	 6.8500000000e+001	 1.28404e-007
1098	 6.8562500000e+001	 1.32463e-007
1099	 6.8625000000e+001	 1.28687e-007
1100	 6.8687500000e+001	 1.41187e-007
1101	 6.8750000000e+001	 1.13968e-007
1102	 6.8812500000e+001	 1.39902e-007
1103	 6.8875000000e+001	 1.42741e-007
1104	 6.8937500000e+001	 9.97882e-008
1105	 6.9000000000e+001	 1.57210e-007
1106	 6.9062500000e+001	 1.29057e-007
1107	 6.9125000000e+001	 1.39496e-007
1108	 6.9187500000e+001	 1.23815e-007
1109	 6.9250000000e+001	 1.33789e-007
1110	 6.9312500000e+001	 1.19918e-007
1111	 6.9375000000e+001	 1.28998e-007
1112	 6.9437500000e+001	 1.22093e-007
1113	 6.9500000000e+001	 1.51072e-007
1114	 6.9562500000e+001	 1.20776e-007
1115	 6.9625000000e+001	 1.27872e-007
1116	 6.9687500000e+001	 1.31085e-007
1117	 6.9750000000e+001	 1.26657e-007
1118	 6.9812500000e+001	 1.18229e-007
1119	 6.9875000000e+001	 1.27994e-007
1120	 6.9937500000e+001	 1.21938e-007
1121	 7.0000000000e+001	 1.17768e-007
1122	 7.0062500000e+001	 1.27325e-007
1123	 7.0125000000e+001	 1.32616e-007
1124	 7.0187500000e+001	 1.06924e-007
1125	 7.0250000000e+001	 1.25918e-007
1126	 7.0312500000e+001	 1.14801e-007
1127	 7.0375000000e+001	 1.35866e-007
1128	 7.0437500000e+001	 9.92894e-008
1129	 7.0500000000e+001	 1.31459e-007
1130	 7.0562500000e+001	 1.10271e-007
1131	 7.0625000000e+001	 1.30846e-007
1132	 7.0687500000e+001	 1.07511e-007
1133	 7.0750000000e+001	 1.17344e-007
1134	 7.0812500000e+001	 1.17881e-007
1135	 7.0875000000e+001	 1.10306e-007
1136	 7.0937500000e+001	 1.32922e-007
1137	 7.1000000000e+001	 1.13039e-007
1138	 7.1062500000e+001	 1.10202e-007
1139	 7.1125000000e+001	 1.22994e-007
1140	 7.1187500000e+001	 1.25030e-007
1141	 7.1250000000e+001	 1.20020e-007
1142	 7.1312500000e+001	 1.08660e-007
1143	 7.1375000000e+001	 1.27241e-007
1144	 7.1437500000e+001	 1.23584e-007
1145	 7.1500000000e+001	 9.91169e-008
1146	 7.1562500000e+001	 1.25977e-007
1147	 7.1625000000e+001	 1.17494e-007
1148	 7.1687500000e+001	 1.27133e-007
1149	 7.1750000000e+001	 1.08346e-007
1150	 7.1812500000e+001	 1.07106e-007
1151	 7.1875000000e+001	 1.16170e-007
1152	 7.1937500000e+001	 1.15786e-007
1153	 7.2000000000e+001	 1.13593e-007
1154	 7.2062500000e+001	 1.16429e-007
1155	 7.2125000000e+001	 1.08859e-007
1156	 7.2187500000e+001	 1.02744e-007
1157	 7.2250000000e+001	 1.27566e-007
1158	 7.2312500000e+001	 9.84588e-008
1159	 7.2375000000e+001	 1.24297e-007
1160	 7.2437500000e+001	 1.02739e-007
1161	 7.2500000000e+001	 1.10051e-007
1162	 7.2562500000e+001	 9.74872e-008
1163	 7.2625000000e+001	 1.14924e-007
1164	 7.2687500000e+001	 1.04439e-007
1165	 7.2750000000e+001	 1.28342e-007
1166	 7.2812500000e+001	 9.35980e-008
1167	 7.2875000000e+001	 1.21088e-007
1168	 7.2937500000e+001	 1.06912e-007
1169	 7.3000000000e+001	 1.10173e-007
1170	 7.3062500000e+001	 1.05900e-007
1171	 7.3125000000e+001	 1.15904e-007
1172	 7.3187500000e+001	 1.11377e-007
1173	 7.3250000000e+001	 1.07070e-007
1174	 7.3312500000e+001	 1.14302e-007
1175	 7.3375000000e+001	 1.00666e-007
1176	 7.3437500000e+001	 1.00707e-007
1177	 7.3500000000e+001	 1.08837e-007
1178	 7.3562500000e+001	 1.04576e-007
1179	 7.3625000000e+001	 1.03593e-007
1180	 7.3687500000e+001	 1.20571e-007
1181	 7.3750000000e+001	 1.08719e-007
1182	 7.3812500000e+001	 9.19622e-008
1183	 7.3875000000e+001	 1.06712e-007
1184	 7.3937500000e+001	 1.04790e-007
1185	 7.4000000000e+001	 1.21720e-007
1186	 7.4062500000e+001	 9.73369e-008
1187	 7.4125000000e+001	 1.03368e-007
1188	 7.4187500000e+001	 1.09704e-007
1189	 7.4250000000e+001	 1.04993e-007
1190	 7.4312500000e+001	 1.03890e-007
1191	 7.4375000000e+001	 1.00969e-007
1192	 7.4437500000e+001	 9.01879e-008
1193	 7.4500000000e+001	 1.06638e-007
1194	 7.4562500000e+001	 9.67207e-008
1195	 7.4625000000e+001	 9.28764e-008
1196	 7.4687500000e+001	 1.11111e-007
1197	 7.4750000000e+001	 9.03758e-008
1198	 7.4812500000e+001	 1.00027e-007
1199	 7.4875000000e+001	 1.12765e-007
1200	 7.4937500000e+001	 9.06537e-008
1201	 7.5000000000e+001	 1.11365e-007
1202	 7.5062500000e+001	 7.90225e-008
1203	 7.5125000000e+001	 1.14535e-007
1204	 7.5187500000e+001	 9.86517e-008
1205	 7.5250000000e+001	 8.68229e-008
1206	 7.5312500000e+001	 1.19479e-007
1207	 7.5375000000e+001	 8.71134e-008
1208	 7.5437500000e+001	 1.05322e-007
1209	 7.5500000000e+001	 9.80341e-008
1210	 7.5562500000e+001	 1.08837e-007
1211	 7.5625000000e+001	 8.91344e-008
1212	 7.5687500000e+001	 1.04854e-007
1213	 7.5750000000e+001	 1.00287e-007
1214	 7.5812500000e+001	 9.11325e-008
1215	 7.5875000000e+001	 1.10378e-007
1216	 7.5937500000e+001	 9.04811e-008
1217	 7.6000000000e+001	 1.25100e-007
1218	 7.6062500000e+001	 9.93483e-008
1219	 7.6125000000e+001	 9.42349e-008
1220	 7.6187500000e+001	 1.08760e-007
1221	 7.6250000000e+001	 9.22314e-008
1222	 7.6312500000e+001	 1.01600e-007
1223	 7.6375000000e+001	 9.68680e-008
1224	 7.6437500000e+001	 1.08520e-007
1225	 7.6500000000e+001	 8.49018e-008
1226	 7.6562500000e+001	 1.04772e-007
1227	 7.6625000000e+001	 9.04849e-008
1228	 7.6687500000e+001	 1.18643e-007
1229	 7.6750000000e+001	 8.26614e-008
1230	 7.6812500000e+001	 9.51168e-008
1231	 7.6875000000e+001	 1.05592e-007
1232	 7.6937500000e+001	 1.04543e-007
1233	 7.7000000000e+001	 8.49893e-008
1234	 7.7062500000e+001	 1.00895e-007
1235	 7.7125000000e+001	 9.59818e-008
1236	 7.7187500000e+001	 9.64035e-008
1237	 7.7250000000e+001	 9.47524e-008
1238	 7.7312500000e+001	 9.90826e-008
1239	 7.7375000000e+001	 8.70737e-008
1240	 7.7437500000e+001	 9.87288e-008
1241	 7.7500000000e+001	 1.00840e-007
1242	 7.7562500000e+001	 9.55652e-008
1243	 7.7625000000e+001	 8.92735e-008
1244	 7.7687500000e+001	 1.09627e-007
1245	 7.7750000000e+001	 9.11642e-008
1246	 7.7812500000e+001	 9.91919e-008
1247	 7.7875000000e+001	 9.08530e-008
1248	 7.7937500000e+001	 1.01958e-007
1249	 7.8000000000e+001	 9.44937e-008
1250	 7.8062500000e+001	 9.89604e-008
1251	 7.8125000000e+001	 9.20355e-008
1252	 7.8187500000e+001	 1.05495e-007
1253	 7.8250000000e+001	 9.22721e-008
1254	 7.8312500000e+001	 9.94258e-008
1255	 7.8375000000e+001	 9.62555e-008
1256	 7.8437500000e+001	 1.00608e-007
1257	 7.8500000000e+001	 8.33535e-008
1258	 7.8562500000e+001	 1.10983e-007
1259	 7.8625000000e+001	 8.73618e-008
1260	 7.8687500000e+001	 9.65694e-008
1261	 7.8750000000e+001	 1.03392e-007
1262	 7.8812500000e+001	 9.14863e-008
1263	 7.8875000000e+001	 8.74413e-008
1264	 7.8937500000e+001	 9.70052e-008
1265	 7.9000000000e+001	 9.69557e-008
1266	 7.9062500000e+001	 9.85535e-008
1267	 7.9125000000e+001	 8.27548e-008
1268	 7.9187500000e+001	 9.44856e-008
1269	 7.9250000000e+001	 8.35723e-008
1270	 7.9312500000e+001	 9.79590e-008
1271	 7.9375000000e+001	 9.67079e-008
1272	 7.9437500000e+001	 8.07117e-008
1273	 7.9500000000e+001	 9.69293e-008
1274	 7.9562500000e+001	 9.36769e-008
1275	 7.9625000000e+001	 9.86338e-008
1276	 7.9687500000e+001	 8.32684e-008
1277	 7.9750000000e+001	 9.38370e-008
1278	 7.9812500000e+001	 8.53459e-008
1279	 7.9875000000e+001	 1.05586e-007
1280	 7.9937500000e+001	 8.62480e-008
1281	 8.0000000000e+001	 9.46989e-008
1282	 8.0062500000e+001	 8.29521e-008
1283	 8.0125000000e+001	 9.87282e-008
1284	 8.0187500000e+001	 7.84135e-008
1285	 8.0250000000e+001	 9.22912e-008
1286	 8.0312500000e+001	 9.90890e-008
1287	 8.0375000000e+001	 9.33303e-008
1288	 8.0437500000e+001	 7.78118e-008
1289	 8.0500000000e+001	 1.13781e-007
1290	 8.0562500000e+001	 7.95622e-008
1291	 8.0625000000e+001	 9.52110e-008
1292	 8.0687500000e+001	 8.58867e-008
1293	 8.0750000000e+001	 9.16617e-008
1294	 8.0812500000e+001	 9.61014e-008
1295	 8.0875000000e+001	 9.96445e-008
1296	 8.0937500000e+001	 8.17966e-008
1297	 8.1000000000e+001	 9.89741e-008
1298	 8.1062500000e+001	 8.43578e-008
1299	 8.1125000000e+001	 8.99581e-008
1300	 8.1187500000e+001	 9.24992e-008
1301	 8.1250000000e+001	 9.27414e-008
1302	 8.1312500000e+001	 8.18213e-008
1303	 8.1375000000e+001	 9.72265e-008
1304	 8.1437500000e+001	 7.77626e-008
1305	 8.1500000000e+001	 9.69153e-008
1306	 8.1562500000e+001	 9.25215e-008
1307	 8.1625000000e+001	 7.66722e-008
1308	 8.1687500000e+001	 9.81463e-008
1309	 8.1750000000e+001	 8.55862e-008
1310	 8.1812500000e+001	 7.91388e-008
1311	 8.1875000000e+001	 9.78738e-008
1312	 8.1937500000e+001	 8.76482e-008
1313	 8.2000000000e+001	 8.81696e-008
1314	 8.2062500000e+001	 9.14612e-008
1315	 8.2125000000e+001	 7.99758e-008
1316	 8.2187500000e+001	 8.05833e-008
1317	 8.2250000000e+001	 9.55257e-008
1318	 8.2312500000e+001	 8.42917e-008
1319	 8.2375000000e+001	 8.60692e-008
1320	 8.2437500000e+001	 8.61952e-008
1321	 8.2500000000e+001	 8.02349e-008
1322	 8.2562500000e+001	 8.68909e-008
1323	 8.2625000000e+001	 9.03566e-008
1324	 8.2687500000e+001	 7.36024e-008
1325	 8.2750000000e+001	 8.94696e-008
1326	 8.2812500000e+001	 9.26877e-008
1327	 8.2875000000e+001	 7.55603e-008
1328	 8.2937500000e+001	 8.37346e-008
1329	 8.3000000000e+001	 8.80082e-008
1330	 8.3062500000e+001	 7.15577e-008
1331	 8.3125000000e+001	 9.62695e-008
1332	 8.3187500000e+001	 8.47175e-008
1333	 8.3250000000e+001	 8.32930e-008
1334	 8.3312500000e+001	 7.67900e-008
1335	 8.3375000000e+001	 8.02076e-008
1336	 8.3437500000e+001	 9.84034e-008
1337	 8.3500000000e+001	 7.93011e-008
1338	 8.3562500000e+001	 8.30629e-008
1339	 8.3625000000e+001	 7.64571e-008
1340	 8.3687500000e+001	 8.37165e-008
1341	 8.3750000000e+001	 9.16823e-008
1342	 8.3812500000e+001	 7.61140e-008
1343	 8.3875000000e+001	 9.78188e-008
1344	 8.3937500000e+001	 7.60111e-008
1345	 8.4000000000e+001	 7.73445e-008
1346	 8.4062500000e+001	 8.52087e-008
1347	 8.4125000000e+001	 9.03257e-008
1348	 8.4187500000e+001	 8.12586e-008
1349	 8.4250000000e+001	 8.05334e-008
1350	 8.4312500000e+001	 8.48294e-008
1351	 8.4375000000e+001	 8.39773e-008
1352	 8.4437500000e+001	 7.89868e-008
1353	 8.4500000000e+001	 8.61723e-008
1354	 8.4562500000e+001	 9.54769e-008
1355	 8.4625000000e+001	 7.35614e-008
1356	 8.4687500000e+001	 7.77350e-008
1357	 8.4750000000e+001	 8.23668e-008
1358	 8.4812500000e+001	 8.56045e-008
1359	 8.4875000000e+001	 8.16965e-008
1360	 8.4937500000e+001	 7.42761e-008
1361	 8.5000000000e+001	 8.54976e-008
1362	 8.5062500000e+001	 9.41580e-008
1363	 8.5125000000e+001	 6.92783e-008
1364	 8.5187500000e+001	 8.75544e-008
1365	 8.5250000000e+001	 7.49976e-008
1366	 8.5312500000e+001	 9.05435e-008
1367	 8.5375000000e+001	 8.16190e-008
1368	 8.5437500000e+001	 7.15437e-008
1369	 8.5500000000e+001	 8.74085e-008
1370	 8.5562500000e+001	 8.15956e-008
1371	 8.5625000000e+001	 7.35048e-008
1372	 8.5687500000e+001	 8.15937e-008
1373	 8.5750000000e+001	 8.11216e-008
1374	 8.5812500000e+001	 8.21553e-008
1375	 8.5875000000e+001	 7.68558e-008
1376	 8.5937500000e+001	 7.69995e-008
1377	 8.6000000000e+001	 9.11712e-008
1378	 8.6062500000e+001	 8.08858e-008
1379	 8.6125000000e+001	 7.49308e-008
1380	 8.6187500000e+001	 7.33959e-008
1381	 8.6250000000e+001	 8.29220e-008
1382	 8.6312500000e+001	 7.03693e-008
1383	 8.6375000000e+001	 8.93421e-008
1384	 8.6437500000e+001	 7.29466e-008
1385	 8.6500000000e+001	 8.58038e-008
1386	 8.6562500000e+001	 7.16396e-008
1387	 8.6625000000e+001	 8.33165e-008
1388	 8.6687500000e+001	 7.79717e-008
1389	 8.6750000000e+001	 7.11938e-008
1390	 8.6812500000e+001	 8.70310e-008
1391	 8.6875000000e+001	 7.72366e-008
1392	 8.6937500000e+001	 6.81334e-008
1393	 8.7000000000e+001	 9.17396e-008
1394	 8.7062500000e+001	 6.81551e-008
1395	 8.7125000000e+001	 9.10925e-008
1396	 8.7187500000e+001	 7.32423e-008
1397	 8.7250000000e+001	 7.60719e-008
1398	 8.7312500000e+001	 7.25744e-008
1399	 8.7375000000e+001	 9.03965e-008
1400	 8.7437500000e+001	 7.04881e-008
1401	 8.7500000000e+001	 7.87974e-008
1402	 8.7562500000e+001	 8.35420e-008
1403	 8.7625000000e+001	 6.92070e-008
1404	 8.7687500000e+001	 8.33628e-008
1405	 8.7750000000e+001	 7.29547e-008
1406	 8.7812500000e+001	 7.89112e-008
1407	 8.7875000000e+001	 7.14447e-008
1408	 8.7937500000e+001	 9.17854e-008
1409	 8.8000000000e+001	 7.55159e-008
1410	 8.8062500000e+001	 7.99281e-008
1411	 8.8125000000e+001	 7.64748e-008
1412	 8.8187500000e+001	 8.22215e-008
1413	 8.8250000000e+001	 6.92142e-008
1414	 8.8312500000e+001	 7.78387e-008
1415	 8.8375000000e+001	 7.67988e-008
1416	 8.8437500000e+001	 7.21606e-008
1417	 8.8500000000e+001	 7.93280e-008
1418	 8.8562500000e+001	 8.11274e-008
1419	 8.8625000000e+001	 7.63654e-008
1420	 8.8687500000e+001	 8.20542e-008
1421	 8.8750000000e+001	 6.65303e-008
1422	 8.8812500000e+001	 8.15139e-008
1423	 8.8875000000e+001	 7.54622e-008
1424	 8.8937500000e+001	 7.08075e-008
1425	 8.9000000000e+001	 7.85388e-008
1426	 8.9062500000e+001	 7.64265e-008
1427	 8.9125000000e+001	 7.29530e-008
1428	 8.9187500000e+001	 7.41637e-008
1429	 8.9250000000e+001	 7.34363e-008
1430	 8.9312500000e+001	 8.00447e-008
1431	 8.9375000000e+001	 8.14380e-008
1432	 8.9437500000e+001	 6.71068e-008
1433	 8.9500000000e+001	 6.50039e-008
1434	 8.9562500000e+001	 7.50405e-008
1435	 8.9625000000e+001	 7.56907e-008
1436	 8.9687500000e+001	 6.60835e-008
1437	 8.9750000000e+001	 8.20993e-008
1438	 8.9812500000e+001	 7.69534e-008
1439	 8.9875000000e+001	 6.91789e-008
1440	 8.9937500000e+001	 7.62678e-008
1441	 9.0000000000e+001	 7.15570e-008
1442	 9.0062500000e+001	 7.38113e-008
1443	 9.0125000000e+001	 7.18892e-008
1444	 9.0187500000e+001	 5.81803e-008
1445	 9.0250000000e+001	 9.42485e-008
1446	 9.0312500000e+001	 5.70685e-008
1447	 9.0375000000e+001	 7.79968e-008
1448	 9.0437500000e+001	 7.34760e-008
1449	 9.0500000000e+001	 8.02830e-008
1450	 9.0562500000e+001	 7.24416e-008
1451	 9.0625000000e+001	 6.85362e-008
1452	 9.0687500000e+001	 7.28502e-008
1453	 9.0750000000e+001	 7.60690e-008
1454	 9.0812500000e+001	 6.45513e-008
1455	 9.0875000000e+001	 7.49561e-008
1456	 9.0937500000e+001	 7.28097e-008
1457	 9.1000000000e+001	 7.56058e-008
1458	 9.1062500000e+001	 6.00898e-008
1459	 9.1125000000e+001	 8.40880e-008
1460	 9.1187500000e+001	 6.77496e-008
1461	 9.1250000000e+001	 7.51790e-008
1462	 9.1312500000e+001	 7.72286e-008
1463	 9.1375000000e+001	 6.54528e-008
1464	 9.1437500000e+001	 7.77831e-008
1465	 9.1500000000e+001	 6.69910e-008
1466	 9.1562500000e+001	 7.12591e-008
1467	 9.1625000000e+001	 7.14301e-008
1468	 9.1687500000e+001	 6.29205e-008
1469	 9.1750000000e+001	 7.59724e-008
1470	 9.1812500000e+001	 6.89936e-008
1471	 9.1875000000e+001	 7.32807e-008
1472	 9.1937500000e+001	 7.80873e-008
1473	 9.2000000000e+001	 6.76929e-008
1474	 9.2062500000e+001	 7.45824e-008
1475	 9.2125000000e+001	 6.54921e-008
1476	 9.2187500000e+001	 7.02936e-008
1477	 9.2250000000e+001	 6.82114e-008
1478	 9.2312500000e+001	 7.50749e-008
1479	 9.2375000000e+001	 7.03045e-008
1480	 9.2437500000e+001	 6.36776e-008
1481	 9.2500000000e+001	 8.01062e-008
1482	 9.2562500000e+001	 5.86082e-008
1483	 9.2625000000e+001	 7.63137e-008
1484	 9.2687500000e+001	 5.24397e-008
1485	 9.2750000000e+001	 9.44939e-008
1486	 9.2812500000e+001	 5.62966e-008
1487	 9.2875000000e+001	 7.71643e-008
1488	 9.2937500000e+001	 5.96451e-008
1489	 9.3000000000e+001	 7.39179e-008
1490	 9.3062500000e+001	 7.57442e-008
1491	 9.3125000000e+001	 5.96016e-008
1492	 9.3187500000e+001	 6.88305e-008
1493	 9.3250000000e+001	 7.14902e-008
1494	 9.3312500000e+001	 6.03639e-008
1495	 9.3375000000e+001	 8.32051e-008
1496	 9.3437500000e+001	 6.11213e-008
1497	 9.3500000000e+001	 7.51956e-008
1498	 9.3562500000e+001	 7.49583e-008
1499	 9.3625000000e+001	 5.56856e-008
1500	 9.3687500000e+001	 7.42816e-008
1501	 9.3750000000e+001	 6.21783e-008
1502	 9.3812500000e+001	 7.37550e-008
1503	 9.3875000000e+001	 6.66313e-008
1504	 9.3937500000e+001	 7.65353e-008
1505	 9.4000000000e+001	 5.73786e-008
1506	 9.4062500000e+001	 7.26754e-008
1507	 9.4125000000e+001	 7.14047e-008
1508	 9.4187500000e+001	 5.84947e-008
1509	 9.4250000000e+001	 8.20904e-008
1510	 9.4312500000e+001	 7.00901e-008
1511	 9.4375000000e+001	 6.53262e-008
1512	 9.4437500000e+001	 6.81770e-008
1513	 9.4500000000e+001	 6.52145e-008
1514	 9.4562500000e+001	 6.88030e-008
1515	 9.4625000000e+001	 6.58028e-008
1516	 9.4687500000e+001	 6.98039e-008
1517	 9.4750000000e+001	 7.39623e-008
1518	 9.4812500000e+001	 5.65976e-008
1519	 9.4875000000e+001	 7.14490e-008
1520	 9.4937500000e+001	 7.48282e-008
1521	 9.5000000000e+001	 5.75265e-008
1522	 9.5062500000e+001	 7.20830e-008
1523	 9.5125000000e+001	 6.46360e-008
1524	 9.5187500000e+001	 6.87785e-008
1525	 9.5250000000e+001	 5.65803e-008
1526	 9.5312500000e+001	 8.47662e-008
1527	 9.5375000000e+001	 6.28794e-008
1528	 9.5437500000e+001	 5.76236e-008
1529	 9.5500000000e+001	 7.28666e-008
1530	 9.5562500000e+001	 6.75569e-008
1531	 9.5625000000e+001	 6.16850e-008
1532	 9.5687500000e+001	 6.94296e-008
1533	 9.5750000000e+001	 6.84552e-008
1534	 9.5812500000e+001	 5.62523e-008
1535	 9.5875000000e+001	 7.19491e-008
1536	 9.5937500000e+001	 6.01517e-008
1537	 9.6000000000e+001	 8.00208e-008
1538	 9.6062500000e+001	 5.44529e-008
1539	 9.6125000000e+001	 7.64937e-008
1540	 9.6187500000e+001	 5.98618e-008
1541	 9.6250000000e+001	 6.13164e-008
1542	 9.6312500000e+001	 6.67329e-008
1543	 9.6375000000e+001	 6.55241e-008
1544	 9.6437500000e+001	 6.25344e-008
1545	 9.6500000000e+001	 6.10483e-008
1546	 9.6562500000e+001	 7.09510e-008
1547	 9.6625000000e+001	 5.05998e-008
1548	 9.6687500000e+001	 7.21903e-008
1549	 9.6750000000e+001	 7.16464e-008
1550	 9.6812500000e+001	 5.54018e-008
1551	 9.6875000000e+001	 7.97104e-008
1552	 9.6937500000e+001	 5.38416e-008
1553	 9.7000000000e+001	 5.87118e-008
1554	 9.7062500000e+001	 6.72580e-008
1555	 9.7125000000e+001	 5.84610e-008
1556	 9.7187500000e+001	 7.48873e-008
1557	 9.7250000000e+001	 5.14728e-008
1558	 9.7312500000e+001	 7.36661e-008
1559	 9.7375000000e+001	 5.98188e-008
1560	 9.7437500000e+001	 6.08405e-008
1561	 9.7500000000e+001	 6.33650e-008
1562	 9.7562500000e+001	 6.12138e-008
1563	 9.7625000000e+001	 4.82808e-008
1564	 9.7687500000e+001	 7.74477e-008
1565	 9.7750000000e+001	 5.52609e-008
1566	 9.7812500000e+001	 6.02013e-008
1567	 9.7875000000e+001	 6.08377e-008
1568	 9.7937500000e+001	 6.01246e-008
1569	 9.8000000000e+001	 5.77432e-008
1570	 9.8062500000e+001	 5.91526e-008
1571	 9.8125000000e+001	 6.56305e-008
1572	 9.8187500000e+001	 5.36988e-008
1573	 9.8250000000e+001	 6.28564e-008
1574	 9.8312500000e+001	 4.58921e-008
1575	 9.8375000000e+001	 7.29414e-008
1576	 9.8437500000e+001	 5.17469e-008
1577	 9.8500000000e+001	 6.32960e-008
1578	 9.8562500000e+001	 5.93430e-008
1579	 9.8625000000e+001	 5.86096e-008
1580	 9.8687500000e+001	 5.73796e-008
1581	 9.8750000000e+001	 5.79285e-008
1582	 9.8812500000e+001	 5.93964e-008
1583	 9.8875000000e+001	 4.89055e-008
1584	 9.8937500000e+001	 6.23749e-008
1585	 9.9000000000e+001	 5.62575e-008
1586	 9.9062500000e+001	 6.09406e-008
1587	 9.9125000000e+001	 5.31222e-008
1588	 9.9187500000e+001	 6.03194e-008
1589	 9.9250000000e+001	 5.13056e-008
1590	 9.9312500000e+001	 5.37449e-008
1591	 9.9375000000e+001	 5.77461e-008
1592	 9.9437500000e+001	 5.72565e-008
1593	 9.9500000000e+001	 5.98668e-008
1594	 9.9562500000e+001	 4.98529e-008
1595	 9.9625000000e+001	 5.38955e-008
1596	 9.9687500000e+001	 6.15720e-008
1597	 9.9750000000e+001	 5.03218e-008
1598	 9.9812500000e+001	 5.87200e-008
1599	 9.9875000000e+001	 5.07175e-008
1600	 9.9937500000e+001	 5.67008e-008
1601	 1.0000000000e+002	 5.02274e-008
1602	 1.0006250000e+002	 5.29708e-008
1603	 1.0012500000e+002	 5.79265e-008
1604	 1.0018750000e+002	 4.92292e-008
1605	 1.0025000000e+002	 5.70267e-008
1606	 1.0031250000e+002	 5.79298e-008
1607	 1.0037500000e+002	 4.89547e-008
1608	 1.0043750000e+002	 4.86862e-008
1609	 1.0050000000e+002	 6.05327e-008
1610	 1.0056250000e+002	 5.71897e-008
1611	 1.0062500000e+002	 5.04713e-008
1612	 1.0068750000e+002	 6.11700e-008
1613	 1.0075000000e+002	 4.55083e-008
1614	 1.0081250000e+002	 6.22236e-008
1615	 1.0087500000e+002	 4.82933e-008
1616	 1.0093750000e+002	 5.72972e-008
1617	 1.0100000000e+002	 4.73773e-008
1618	 1.0106250000e+002	 5.35912e-008
1619	 1.0112500000e+002	 6.07585e-008
1620	 1.0118750000e+002	 5.56341e-008
1621	 1.0125000000e+002	 6.12047e-008
1622	 1.0131250000e+002	 4.43176e-008
1623	 1.0137500000e+002	 6.00336e-008
1624	 1.0143750000e+002	 5.29664e-008
1625	 1.0150000000e+002	 5.11670e-008
1626	 1.0156250000e+002	 5.50828e-008
1627	 1.0162500000e+002	 6.17931e-008
1628	 1.0168750000e+002	 4.65925e-008
1629	 1.0175000000e+002	 5.25581e-008
1630	 1.0181250000e+002	 6.11001e-008
1631	 1.0187500000e+002	 5.49274e-008
1632	 1.0193750000e+002	 5.92914e-008
1633	 1.0200000000e+002	 5.28110e-008
1634	 1.0206250000e+002	 5.38351e-008
1635	 1.0212500000e+002	 5.49808e-008
1636	 1.0218750000e+002	 5.18039e-008
1637	 1.0225000000e+002	 5.93516e-008
1638	 1.0231250000e+002	 5.38017e-008
1639	 1.0237500000e+002	 5.64462e-008
1640	 1.0243750000e+002	 5.78835e-008
1641	 1.0250000000e+002	 5.68857e-008
1642	 1.0256250000e+002	 5.25315e-008
1643	 1.0262500000e+002	 5.48679e-008
1644	 1.0268750000e+002	 5.59366e-008
1645	 1.0275000000e+002	 5.40443e-008
1646	 1.0281250000e+002	 5.73812e-008
1647	 1.0287500000e+002	 6.36569e-008
1648	 1.0293750000e+002	 4.52637e-008
1649	 1.0300000000e+002	 6.72781e-008
1650	 1.0306250000e+002	 4.62083e-008
1651	 1.0312500000e+002	 6.77043e-008
1652	 1.0318750000e+002	 4.95566e-008
1653	 1.0325000000e+002	 5.35494e-008
1654	 1.0331250000e+002	 6.11982e-008
1655	 1.0337500000e+002	 4.92859e-008
1656	 1.0343750000e+002	 6.53228e-008
1657	 1.0350000000e+002	 5.13035e-008
1658	 1.0356250000e+002	 5.40275e-008
1659	 1.0362500000e+002	 5.97856e-008
1660	 1.0368750000e+002	 6.23400e-008
1661	 1.0375000000e+002	 5.25603e-008
1662	 1.0381250000e+002	 5.91683e-008
1663	 1.0387500000e+002	 4.99710e-008
1664	 1.0393750000e+002	 7.03676e-008
1665	 1.0400000000e+002	 5.20280e-008
1666	 1.0406250000e+002	 5.93491e-008
1667	 1.0412500000e+002	 5.27208e-008
1668	 1.0418750000e+002	 7.53460e-008
1669	 1.0425000000e+002	 5.54915e-008
1670	 1.0431250000e+002	 4.98945e-008
1671	 1.0437500000e+002	 6.49107e-008
1672	 1.0443750000e+002	 5.63705e-008
1673	 1.0450000000e+002	 5.35266e-008
1674	 1.0456250000e+002	 7.17284e-008
1675	 1.0462500000e+002	 5.35323e-008
1676	 1.0468750000e+002	 5.53847e-008
1677	 1.0475000000e+002	 6.68000e-008
1678	 1.0481250000e+002	 5.59178e-008
1679	 1.0487500000e+002	 6.78754e-008
1680	 1.0493750000e+002	 6.34822e-008
1681	 1.0500000000e+002	 5.63246e-008
1682	 1.0506250000e+002	 5.46460e-008
1683	 1.0512500000e+002	 6.83188e-008
1684	 1.0518750000e+002	 6.50792e-008
1685	 1.0525000000e+002	 5.40490e-008
1686	 1.0531250000e+002	 6.33433e-008
1687	 1.0537500000e+002	 5.85739e-008
1688	 1.0543750000e+002	 6.06046e-008
1689	 1.0550000000e+002	 5.88617e-008
1690	 1.0556250000e+002	 6.59208e-008
1691	 1.0562500000e+002	 5.32861e-008
1692	 1.0568750000e+002	 6.23612e-008
1693	 1.0575000000e+002	 5.77899e-008
1694	 1.0581250000e+002	 6.30963e-008
1695	 1.0587500000e+002	 5.90487e-008
1696	 1.0593750000e+002	 5.51599e-008
1697	 1.0600000000e+002	 5.83067e-008
1698	 1.0606250000e+002	 6.30724e-008
1699	 1.0612500000e+002	 4.63918e-008
1700	 1.0618750000e+002	 6.78666e-008
1701	 1.0625000000e+002	 5.74003e-008
1702	 1.0631250000e+002	 5.72133e-008
1703	 1.0637500000e+002	 5.74268e-008
1704	 1.0643750000e+002	 5.59439e-008
1705	 1.0650000000e+002	 6.18200e-008
1706	 1.0656250000e+002	 5.44290e-008
1707	 1.0662500000e+002	 6.03079e-008
1708	 1.0668750000e+002	 5.70786e-008
1709	 1.0675000000e+002	 5.35188e-008
1710	 1.0681250000e+002	 5.67635e-008
1711	 1.0687500000e+002	 5.36075e-008
1712	 1.0693750000e+002	 5.76961e-008
1713	 1.0700000000e+002	 5.35502e-008
1714	 1.0706250000e+002	 6.13235e-008
1715	 1.0712500000e+002	 5.35394e-008
1716	 1.0718750000e+002	 5.77879e-008
1717	 1.0725000000e+002	 4.69778e-008
1718	 1.0731250000e+002	 6.13196e-008
1719	 1.0737500000e+002	 5.41134e-008
1720	 1.0743750000e+002	 5.41315e-008
1721	 1.0750000000e+002	 5.26610e-008
1722	 1.0756250000e+002	 5.78003e-008
1723	 1.0762500000e+002	 5.09705e-008
1724	 1.0768750000e+002	 5.21485e-008
1725	 1.0775000000e+002	 5.20983e-008
1726	 1.0781250000e+002	 5.57565e-008
1727	 1.0787500000e+002	 4.97964e-008
1728	 1.0793750000e+002	 5.21724e-008
1729	 1.0800000000e+002	 5.77280e-008
1730	 1.0806250000e+002	 4.93240e-008
1731	 1.0812500000e+002	 5.87822e-008
1732	 1.0818750000e+002	 4.56284e-008
1733	 1.0825000000e+002	 5.77988e-008
1734	 1.0831250000e+002	 4.86974e-008
1735	 1.0837500000e+002	 5.06364e-008
1736	 1.0843750000e+002	 5.06895e-008
1737	 1.0850000000e+002	 4.28945e-008
1738	 1.0856250000e+002	 5.42890e-008
1739	 1.0862500000e+002	 5.85523e-008
1740	 1.0868750000e+002	 4.68983e-008
1741	 1.0875000000e+002	 4.48151e-008
1742	 1.0881250000e+002	 5.11010e-008
1743	 1.0887500000e+002	 5.72529e-008
1744	 1.0893750000e+002	 4.97594e-008
1745	 1.0900000000e+002	 4.56893e-008
1746	 1.0906250000e+002	 5.69008e-008
1747	 1.0912500000e+002	 4.39186e-008
1748	 1.0918750000e+002	 4.93579e-008
1749	 1.0925000000e+002	 5.41485e-008
1750	 1.0931250000e+002	 4.29632e-008
1751	 1.0937500000e+002	 5.30480e-008
1752	 1.0943750000e+002	 4.32970e-008
1753	 1.0950000000e+002	 5.44204e-008
1754	 1.0956250000e+002	 4.37427e-008
1755	 1.0962500000e+002	 4.66196e-008
1756	 1.0968750000e+002	 6.00070e-008
1757	 1.0975000000e+002	 4.03593e-008
1758	 1.0981250000e+002	 4.69179e-008
1759	 1.0987500000e+002	 4.05731e-008
1760	 1.0993750000e+002	 4.61498e-008
1761	 1.1000000000e+002	 4.55563e-008
1762	 1.1006250000e+002	 5.15281e-008
1763	 1.1012500000e+002	 4.32220e-008
1764	 1.1018750000e+002	 4.82574e-008
1765	 1.1025000000e+002	 4.22978e-008
1766	 1.1031250000e+002	 4.94623e-008
1767	 1.1037500000e+002	 4.06983e-008
1768	 1.1043750000e+002	 4.39446e-008
1769	 1.1050000000e+002	 4.49423e-008
1770	 1.1056250000e+002	 4.65448e-008
1771	 1.1062500000e+002	 4.26860e-008
1772	 1.1068750000e+002	 4.09513e-008
1773	 1.1075000000e+002	 4.86507e-008
1774	 1.1081250000e+002	 4.55955e-008
1775	 1.1087500000e+002	 4.16166e-008
1776	 1.1093750000e+002	 4.66585e-008
1777	 1.1100000000e+002	 4.90178e-008
1778	 1.1106250000e+002	 3.31267e-008
1779	 1.1112500000e+002	 4.83418e-008
1780	 1.1118750000e+002	 4.21980e-008
1781	 1.1125000000e+002	 4.41407e-008
1782	 1.1131250000e+002	 4.89340e-008
1783	 1.1137500000e+002	 4.07735e-008
1784	 1.1143750000e+002	 4.44661e-008
1785	 1.1150000000e+002	 4.76725e-008
1786	 1.1156250000e+002	 4.45809e-008
1787	 1.1162500000e+002	 4.94660e-008
1788	 1.1168750000e+002	 4.25390e-008
1789	 1.1175000000e+002	 4.31943e-008
1790	 1.1181250000e+002	 4.89466e-008
1791	 1.1187500000e+002	 4.78494e-008
1792	 1.1193750000e+002	 4.79321e-008
1793	 1.1200000000e+002	 4.35124e-008
1794	 1.1206250000e+002	 4.80858e-008
1795	 1.1212500000e+002	 4.66796e-008
1796	 1.1218750000e+002	 4.20789e-008
1797	 1.1225000000e+002	 4.80142e-008
1798	 1.1231250000e+002	 5.23935e-008
1799	 1.1237500000e+002	 4.48977e-008
1800	 1.1243750000e+002	 4.67361e-008
1801	 1.1250000000e+002	 4.57012e-008
1802	 1.1256250000e+002	 4.45700e-008
1803	 1.1262500000e+002	 5.39423e-008
1804	 1.1268750000e+002	 4.28808e-008
1805	 1.1275000000e+002	 4.66411e-008
1806	 1.1281250000e+002	 4.36256e-008
1807	 1.1287500000e+002	 5.57860e-008
1808	 1.1293750000e+002	 4.08693e-008
1809	 1.1300000000e+002	 4.86879e-008
1810	 1.1306250000e+002	 4.63880e-008
1811	 1.1312500000e+002	 4.68520e-008
1812	 1.1318750000e+002	 4.94636e-008
1813	 1.1325000000e+002	 5.34938e-008
1814	 1.1331250000e+002	 3.95986e-008
1815	 1.1337500000e+002	 4.71659e-008
1816	 1.1343750000e+002	 5.01479e-008
1817	 1.1350000000e+002	 4.94386e-008
1818	 1.1356250000e+002	 4.36853e-008
1819	 1.1362500000e+002	 5.18816e-008
1820	 1.1368750000e+002	 4.28370e-008
1821	 1.1375000000e+002	 4.94852e-008
1822	 1.1381250000e+002	 4.25337e-008
1823	 1.1387500000e+002	 5.60815e-008
1824	 1.1393750000e+002	 4.93670e-008
1825	 1.1400000000e+002	 4.48605e-008
1826	 1.1406250000e+002	 5.54349e-008
1827	 1.1412500000e+002	 4.22166e-008
1828	 1.1418750000e+002	 5.30669e-008
1829	 1.1425000000e+002	 4.50482e-008
1830	 1.1431250000e+002	 5.46082e-008
1831	 1.1437500000e+002	 5.48349e-008
1832	 1.1443750000e+002	 3.89222e-008
1833	 1.1450000000e+002	 5.37813e-008
1834	 1.1456250000e+002	 5.12641e-008
1835	 1.1462500000e+002	 5.14601e-008
1836	 1.1468750000e+002	 4.58585e-008
1837	 1.1475000000e+002	 5.33479e-008
1838	 1.1481250000e+002	 4.81096e-008
1839	 1.1487500000e+002	 5.38961e-008
1840	 1.1493750000e+002	 5.14074e-008
1841	 1.1500000000e+002	 5.44052e-008
1842	 1.1506250000e+002	 4.04870e-008
1843	 1.1512500000e+002	 5.52813e-008
1844	 1.1518750000e+002	 4.66441e-008
1845	 1.1525000000e+002	 4.74520e-008
1846	 1.1531250000e+002	 5.23238e-008
1847	 1.1537500000e+002	 5.46094e-008
1848	 1.1543750000e+002	 5.01057e-008
1849	 1.1550000000e+002	 4.40768e-008
1850	 1.1556250000e+002	 6.29710e-008
1851	 1.1562500000e+002	 4.37567e-008
1852	 1.1568750000e+002	 4.59101e-008
1853	 1.1575000000e+002	 5.63788e-008
1854	 1.1581250000e+002	 4.52442e-008
1855	 1.1587500000e+002	 5.11387e-008
1856	 1.1593750000e+002	 4.42471e-008
1857	 1.1600000000e+002	 5.47601e-008
1858	 1.1606250000e+002	 4.60939e-008
1859	 1.1612500000e+002	 4.80847e-008
1860	 1.1618750000e+002	 5.90420e-008
1861	 1.1625000000e+002	 4.94174e-008
1862	 1.1631250000e+002	 4.80413e-008
1863	 1.1637500000e+002	 4.50714e-008
1864	 1.1643750000e+002	 4.68328e-008
1865	 1.1650000000e+002	 4.63457e-008
1866	 1.1656250000e+002	 5.40216e-008
1867	 1.1662500000e+002	 5.36230e-008
1868	 1.1668750000e+002	 3.91090e-008
1869	 1.1675000000e+002	 5.57620e-008
1870	 1.1681250000e+002	 4.30351e-008
1871	 1.1687500000e+002	 5.92614e-008
1872	 1.1693750000e+002	 3.97363e-008
1873	 1.1700000000e+002	 5.11680e-008
1874	 1.1706250000e+002	 4.24125e-008
1875	 1.1712500000e+002	 4.90304e-008
1876	 1.1718750000e+002	 4.08901e-008
1877	 1.1725000000e+002	 4.92511e-008
1878	 1.1731250000e+002	 4.12219e-008
1879	 1.1737500000e+002	 4.71130e-008
1880	 1.1743750000e+002	 4.64488e-008
1881	 1.1750000000e+002	 4.36141e-008
1882	 1.1756250000e+002	 4.80554e-008
1883	 1.1762500000e+002	 3.74532e-008
1884	 1.1768750000e+002	 4.33425e-008
1885	 1.1775000000e+002	 4.36548e-008
1886	 1.1781250000e+002	 4.26965e-008
1887	 1.1787500000e+002	 4.11401e-008
1888	 1.1793750000e+002	 3.82333e-008
1889	 1.1800000000e+002	 4.35311e-008
1890	 1.1806250000e+002	 4.13082e-008
1891	 1.1812500000e+002	 3.92516e-008
1892	 1.1818750000e+002	 3.72666e-008
1893	 1.1825000000e+002	 4.90856e-008
1894	 1.1831250000e+002	 3.74053e-008
1895	 1.1837500000e+002	 4.06814e-008
1896	 1.1843750000e+002	 4.21272e-008
1897	 1.1850000000e+002	 3.95144e-008
1898	 1.1856250000e+002	 4.18443e-008
1899	 1.1862500000e+002	 4.06676e-008
1900	 1.1868750000e+002	 3.64605e-008
1901	 1.1875000000e+002	 4.66281e-008
1902	 1.1881250000e+002	 3.29287e-008
1903	 1.1887500000e+002	 4.67115e-008
1904	 1.1893750000e+002	 4.33508e-008
1905	 1.1900000000e+002	 3.54341e-008
1906	 1.1906250000e+002	 4.24071e-008
1907	 1.1912500000e+002	 3.73501e-008
1908	 1.1918750000e+002	 4.15660e-008
1909	 1.1925000000e+002	 3.70477e-008
1910	 1.1931250000e+002	 4.06303e-008
1911	 1.1937500000e+002	 4.23867e-008
1912	 1.1943750000e+002	 3.58372e-008
1913	 1.1950000000e+002	 4.11358e-008
1914	 1.1956250000e+002	 3.51308e-008
1915	 1.1962500000e+002	 4.28963e-008
1916	 1.1968750000e+002	 3.34849e-008
1917	 1.1975000000e+002	 4.89433e-008
1918	 1.1981250000e+002	 3.22981e-008
1919	 1.1987500000e+002	 3.43860e-008
1920	 1.1993750000e+002	 4.63483e-008
1921	 1.2000000000e+002	 3.15239e-008
1922	 1.2006250000e+002	 4.20569e-008
1923	 1.2012500000e+002	 3.43274e-008
1924	 1.2018750000e+002	 3.39886e-008
1925	 1.2025000000e+002	 3.89762e-008
1926	 1.2031250000e+002	 4.16788e-008
1927	 1.2037500000e+002	 3.85140e-008
1928	 1.2043750000e+002	 3.47002e-008
1929	 1.2050000000e+002	 3.95095e-008
1930	 1.2056250000e+002	 3.42770e-008
1931	 1.2062500000e+002	 4.13581e-008
1932	 1.2068750000e+002	 3.77951e-008
1933	 1.2075000000e+002	 3.60183e-008
1934	 1.2081250000e+002	 4.11062e-008
1935	 1.2087500000e+002	 3.46200e-008
1936	 1.2093750000e+002	 3.97269e-008
1937	 1.2100000000e+002	 4.10302e-008
1938	 1.2106250000e+002	 3.24914e-008
1939	 1.2112500000e+002	 3.68616e-008
1940	 1.2118750000e+002	 4.10898e-008
1941	 1.2125000000e+002	 3.79173e-008
1942	 1.2131250000e+002	 3.73292e-008
1943	 1.2137500000e+002	 3.66096e-008
1944	 1.2143750000e+002	 4.05465e-008
1945	 1.2150000000e+002	 3.96845e-008
1946	 1.2156250000e+002	 3.50353e-008
1947	 1.2162500000e+002	 3.83681e-008
1948	 1.2168750000e+002	 4.15549e-008
1949	 1.2175000000e+002	 3.58399e-008
1950	 1.2181250000e+002	 4.65837e-008
1951	 1.2187500000e+002	 3.32106e-008
1952	 1.2193750000e+002	 3.70597e-008
1953	 1.2200000000e+002	 3.70048e-008
1954	 1.2206250000e+002	 5.20321e-008
1955	 1.2212500000e+002	 3.60631e-008
1956	 1.2218750000e+002	 3.88808e-008
1957	 1.2225000000e+002	 4.08332e-008
1958	 1.2231250000e+002	 4.31866e-008
1959	 1.2237500000e+002	 4.06354e-008
1960	 1.2243750000e+002	 4.08094e-008
1961	 1.2250000000e+002	 4.35048e-008
1962	 1.2256250000e+002	 3.87181e-008
1963	 1.2262500000e+002	 4.04430e-008
1964	 1.2268750000e+002	 4.14735e-008
1965	 1.2275000000e+002	 5.22513e-008
1966	 1.2281250000e+002	 3.17269e-008
1967	 1.2287500000e+002	 5.03950e-008
1968	 1.2293750000e+002	 4.37851e-008
1969	 1.2300000000e+002	 4.45166e-008
1970	 1.2306250000e+002	 4.38287e-008
1971	 1.2312500000e+002	 3.72382e-008
1972	 1.2318750000e+002	 5.04303e-008
1973	 1.2325000000e+002	 4.42773e-008
1974	 1.2331250000e+002	 4.69208e-008
1975	 1.2337500000e+002	 4.24989e-008
1976	 1.2343750000e+002	 4.70490e-008
1977	 1.2350000000e+002	 4.35392e-008
1978	 1.2356250000e+002	 5.20708e-008
1979	 1.2362500000e+002	 4.24578e-008
1980	 1.2368750000e+002	 4.53983e-008
1981	 1.2375000000e+002	 5.21986e-008
1982	 1.2381250000e+002	 3.92967e-008
1983	 1.2387500000e+002	 4.83983e-008
1984	 1.2393750000e+002	 5.14483e-008
1985	 1.2400000000e+002	 4.16089e-008
1986	 1.2406250000e+002	 5.08097e-008
1987	 1.2412500000e+002	 4.79792e-008
1988	 1.2418750000e+002	 4.35480e-008
1989	 1.2425000000e+002	 4.91618e-008
1990	 1.2431250000e+002	 4.54122e-008
1991	 1.2437500000e+002	 4.72790e-008
1992	 1.2443750000e+002	 4.67147e-008
1993	 1.2450000000e+002	 4.06720e-008
1994	 1.2456250000e+002	 5.06931e-008
1995	 1.2462500000e+002	 4.13051e-008
1996	 1.2468750000e+002	 4.78567e-008
1997	 1.2475000000e+002	 4.68259e-008
1998	 1.2481250000e+002	 4.19799e-008
1999	 1.2487500000e+002	 5.24330e-008
2000	 1.2493750000e+002	 4.40717e-008
2001	 1.2500000000e+002	 4.52472e-008
2002	 1.2506250000e+002	 3.68900e-008
2003	 1.2512500000e+002	 5.72566e-008
2004	 1.2518750000e+002	 3.86973e-008
2005	 1.2525000000e+002	 4.99685e-008
2006	 1.2531250000e+002	 4.03463e-008
2007	 1.2537500000e+002	 4.60338e-008
2008	 1.2543750000e+002	 4.90948e-008
2009	 1.2550000000e+002	 4.11901e-008
2010	 1.2556250000e+002	 4.99508e-008
2011	 1.2562500000e+002	 4.16397e-008
2012	 1.2568750000e+002	 4.34790e-008
2013	 1.2575000000e+002	 4.37252e-008
2014	 1.2581250000e+002	 4.83895e-008
2015	 1.2587500000e+002	 4.17035e-008
2016	 1.2593750000e+002	 4.27397e-008
2017	 1.2600000000e+002	 4.48294e-008
2018	 1.2606250000e+002	 4.84831e-008
2019	 1.2612500000e+002	 4.06114e-008
2020	 1.2618750000e+002	 3.93174e-008
2021	 1.2625000000e+002	 4.83990e-008
2022	 1.2631250000e+002	 3.94852e-008
2023	 1.2637500000e+002	 4.10479e-008
2024	 1.2643750000e+002	 4.59955e-008
2025	 1.2650000000e+002	 4.27479e-008
2026	 1.2656250000e+002	 4.50607e-008
2027	 1.2662500000e+002	 3.51233e-008
2028	 1.2668750000e+002	 4.36735e-008
2029	 1.2675000000e+002	 4.41359e-008
2030	 1.2681250000e+002	 4.02307e-008
2031	 1.2687500000e+002	 4.82524e-008
2032	 1.2693750000e+002	 4.39072e-008
2033	 1.2700000000e+002	 3.91994e-008
2034	 1.2706250000e+002	 4.27114e-008
2035	 1.2712500000e+002	 3.68019e-008
2036	 1.2718750000e+002	 4.72735e-008
2037	 1.2725000000e+002	 4.60211e-008
2038	 1.2731250000e+002	 3.33181e-008
2039	 1.2737500000e+002	 4.30761e-008
2040	 1.2743750000e+002	 4.25205e-008
2041	 1.2750000000e+002	 3.75286e-008
2042	 1.2756250000e+002	 4.13494e-008
2043	 1.2762500000e+002	 4.00800e-008
2044	 1.2768750000e+002	 3.14951e-008
2045	 1.2775000000e+002	 5.23227e-008
2046	 1.2781250000e+002	 3.27446e-008
2047	 1.2787500000e+002	 3.71299e-008
2048	 1.2793750000e+002	 3.89601e-008
2049	 1.2800000000e+002	 3.67694e-008
2050	 1.2806250000e+002	 3.79764e-008
2051	 1.2812500000e+002	 3.48341e-008
2052	 1.2818750000e+002	 3.53647e-008
2053	 1.2825000000e+002	 3.88716e-008
2054	 1.2831250000e+002	 3.34380e-008
2055	 1.2837500000e+002	 3.44922e-008
2056	 1.2843750000e+002	 3.31447e-008
2057	 1.2850000000e+002	 3.65722e-008
2058	 1.2856250000e+002	 3.28834e-008
2059	 1.2862500000e+002	 3.44416e-008
2060	 1.2868750000e+002	 3.24938e-008
2061	 1.2875000000e+002	 3.41012e-008
2062	 1.2881250000e+002	 4.18803e-008
2063	 1.2887500000e+002	 2.47730e-008
2064	 1.2893750000e+002	 3.74355e-008
2065	 1.2900000000e+002	 3.07767e-008
2066	 1.2906250000e+002	 2.76845e-008
2067	 1.2912500000e+002	 3.74730e-008
2068	 1.2918750000e+002	 2.70881e-008
2069	 1.2925000000e+002	 3.86294e-008
2070	 1.2931250000e+002	 2.58104e-008
2071	 1.2937500000e+002	 3.19367e-008
2072	 1.2943750000e+002	 2.83095e-008
2073	 1.2950000000e+002	 3.59416e-008
2074	 1.2956250000e+002	 3.24449e-008
2075	 1.2962500000e+002	 2.95361e-008
2076	 1.2968750000e+002	 3.68031e-008
2077	 1.2975000000e+002	 2.27161e-008
2078	 1.2981250000e+002	 3.74470e-008
2079	 1.2987500000e+002	 2.85639e-008
2080	 1.2993750000e+002	 3.89147e-008
2081	 1.3000000000e+002	 2.37143e-008
2082	 1.3006250000e+002	 3.72480e-008
2083	 1.3012500000e+002	 2.71394e-008
2084	 1.3018750000e+002	 3.15310e-008
2085	 1.3025000000e+002	 2.83083e-008
2086	 1.3031250000e+002	 3.90896e-008
2087	 1.3037500000e+002	 2.82788e-008
2088	 1.3043750000e+002	 3.33900e-008
2089	 1.3050000000e+002	 3.62037e-008
2090	 1.3056250000e+002	 3.28100e-008
2091	 1.3062500000e+002	 3.20568e-008
2092	 1.3068750000e+002	 2.97843e-008
2093	 1.3075000000e+002	 3.20962e-008
2094	 1.3081250000e+002	 4.15945e-008
2095	 1.3087500000e+002	 2.62949e-008
2096	 1.3093750000e+002	 3.40422e-008
2097	 1.3100000000e+002	 3.82090e-008
2098	 1.3106250000e+002	 2.63542e-008
2099	 1.3112500000e+002	 4.51416e-008
2100	 1.3118750000e+002	 2.88292e-008
2101	 1.3125000000e+002	 3.61612e-008
2102	 1.3131250000e+002	 3.45105e-008
2103	 1.3137500000e+002	 4.26763e-008
2104	 1.3143750000e+002	 2.72674e-008
2105	 1.3150000000e+002	 3.92587e-008
2106	 1.3156250000e+002	 3.55114e-008
2107	 1.3162500000e+002	 2.99137e-008
2108	 1.3168750000e+002	 3.99947e-008
2109	 1.3175000000e+002	 3.91778e-008
2110	 1.3181250000e+002	 3.46954e-008
2111	 1.3187500000e+002	 3.98514e-008
2112	 1.3193750000e+002	 3.32550e-008
2113	 1.3200000000e+002	 3.36169e-008
2114	 1.3206250000e+002	 3.99216e-008
2115	 1.3212500000e+002	 3.34382e-008
2116	 1.3218750000e+002	 3.95596e-008
2117	 1.3225000000e+002	 4.09548e-008
2118	 1.3231250000e+002	 3.55236e-008
2119	 1.3237500000e+002	 3.39569e-008
2120	 1.3243750000e+002	 3.09803e-008
2121	 1.3250000000e+002	 4.44818e-008
2122	 1.3256250000e+002	 3.49402e-008
2123	 1.3262500000e+002	 3.64118e-008
2124	 1.3268750000e+002	 3.42121e-008
2125	 1.3275000000e+002	 3.12267e-008
2126	 1.3281250000e+002	 4.14375e-008
2127	 1.3287500000e+002	 3.90781e-008
2128	 1.3293750000e+002	 3.16890e-008
2129	 1.3300000000e+002	 3.32082e-008
2130	 1.3306250000e+002	 3.51213e-008
2131	 1.3312500000e+002	 3.51505e-008
2132	 1.3318750000e+002	 4.00435e-008
2133	 1.3325000000e+002	 3.99617e-008
2134	 1.3331250000e+002	 3.34762e-008
2135	 1.3337500000e+002	 3.60947e-008
2136	 1.3343750000e+002	 3.98988e-008
2137	 1.3350000000e+002	 3.33799e-008
2138	 1.3356250000e+002	 3.28785e-008
2139	 1.3362500000e+002	 4.42227e-008
2140	 1.3368750000e+002	 3.40062e-008
2141	 1.3375000000e+002	 3.61447e-008
2142	 1.3381250000e+002	 3.66258e-008
2143	 1.3387500000e+002	 3.54600e-008
2144	 1.3393750000e+002	 4.46108e-008
2145	 1.3400000000e+002	 3.23219e-008
2146	 1.3406250000e+002	 4.62931e-008
2147	 1.3412500000e+002	 4.01042e-008
2148	 1.3418750000e+002	 3.89869e-008
2149	 1.3425000000e+002	 3.93553e-008
2150	 1.3431250000e+002	 3.90050e-008
2151	 1.3437500000e+002	 5.03129e-008
2152	 1.3443750000e+002	 3.52258e-008
2153	 1.3450000000e+002	 4.70947e-008
2154	 1.3456250000e+002	 4.02659e-008
2155	 1.3462500000e+002	 4.32685e-008
2156	 1.3468750000e+002	 3.90088e-008
2157	 1.3475000000e+002	 3.95332e-008
2158	 1.3481250000e+002	 4.39644e-008
2159	 1.3487500000e+002	 4.25863e-008
2160	 1.3493750000e+002	 3.69777e-008
2161	 1.3500000000e+002	 4.64698e-008
2162	 1.3506250000e+002	 4.53173e-008
2163	 1.3512500000e+002	 3.49341e-008
2164	 1.3518750000e+002	 4.68914e-008
2165	 1.3525000000e+002	 4.08252e-008
2166	 1.3531250000e+002	 4.79986e-008
2167	 1.3537500000e+002	 3.51806e-008
2168	 1.3543750000e+002	 4.49171e-008
2169	 1.3550000000e+002	 3.52151e-008
2170	 1.3556250000e+002	 4.79058e-008
2171	 1.3562500000e+002	 3.48472e-008
2172	 1.3568750000e+002	 3.60676e-008
2173	 1.3575000000e+002	 5.01706e-008
2174	 1.3581250000e+002	 3.17146e-008
2175	 1.3587500000e+002	 4.11362e-008
2176	 1.3593750000e+002	 3.98524e-008
2177	 1.3600000000e+002	 3.61125e-008
2178	 1.3606250000e+002	 4.32861e-008
2179	 1.3612500000e+002	 3.43946e-008
2180	 1.3618750000e+002	 4.45416e-008
2181	 1.3625000000e+002	 3.37466e-008
2182	 1.3631250000e+002	 3.51864e-008
2183	 1.3637500000e+002	 3.75764e-008
2184	 1.3643750000e+002	 3.94821e-008
2185	 1.3650000000e+002	 4.08075e-008
2186	 1.3656250000e+002	 3.50969e-008
2187	 1.3662500000e+002	 3.10128e-008
2188	 1.3668750000e+002	 3.93789e-008
2189	 1.3675000000e+002	 3.23019e-008
2190	 1.3681250000e+002	 3.55628e-008
2191	 1.3687500000e+002	 3.57958e-008
2192	 1.3693750000e+002	 3.40773e-008
2193	 1.3700000000e+002	 3.10801e-008
2194	 1.3706250000e+002	 3.71363e-008
2195	 1.3712500000e+002	 3.52851e-008
2196	 1.3718750000e+002	 2.97988e-008
2197	 1.3725000000e+002	 3.40830e-008
2198	 1.3731250000e+002	 3.43651e-008
2199	 1.3737500000e+002	 3.27333e-008
2200	 1.3743750000e+002	 3.33359e-008
2201	 1.3750000000e+002	 2.57602e-008
2202	 1.3756250000e+002	 3.44327e-008
2203	 1.3762500000e+002	 3.08659e-008
2204	 1.3768750000e+002	 3.18400e-008
2205	 1.3775000000e+002	 2.89811e-008
2206	 1.3781250000e+002	 3.01650e-008
2207	 1.3787500000e+002	 2.72689e-008
2208	 1.3793750000e+002	 3.28126e-008
2209	 1.3800000000e+002	 3.46001e-008
2210	 1.3806250000e+002	 2.46384e-008
2211	 1.3812500000e+002	 3.95268e-008
2212	 1.3818750000e+002	 2.39229e-008
2213	 1.3825000000e+002	 3.21176e-008
2214	 1.3831250000e+002	 2.81295e-008
2215	 1.3837500000e+002	 3.22253e-008
2216	 1.3843750000e+002	 3.43046e-008
2217	 1.3850000000e+002	 2.81386e-008
2218	 1.3856250000e+002	 3.29153e-008
2219	 1.3862500000e+002	 3.01282e-008
2220	 1.3868750000e+002	 3.37637e-008
2221	 1.3875000000e+002	 3.26033e-008
2222	 1.3881250000e+002	 2.75215e-008
2223	 1.3887500000e+002	 3.41862e-008
2224	 1.3893750000e+002	 3.46289e-008
2225	 1.3900000000e+002	 2.79949e-008
2226	 1.3906250000e+002	 3.43321e-008
2227	 1.3912500000e+002	 2.70311e-008
2228	 1.3918750000e+002	 3.72068e-008
2229	 1.3925000000e+002	 2.98499e-008
2230	 1.3931250000e+002	 2.99532e-008
2231	 1.3937500000e+002	 3.40513e-008
2232	 1.3943750000e+002	 2.70875e-008
2233	 1.3950000000e+002	 3.89872e-008
2234	 1.3956250000e+002	 2.74872e-008
2235	 1.3962500000e+002	 2.76527e-008
2236	 1.3968750000e+002	 3.12942e-008
2237	 1.3975000000e+002	 2.75577e-008
2238	 1.3981250000e+002	 3.71851e-008
2239	 1.3987500000e+002	 2.62842e-008
2240	 1.3993750000e+002	 3.15587e-008
2241	 1.4000000000e+002	 2.90789e-008
2242	 1.4006250000e+002	 2.83111e-008
2243	 1.4012500000e+002	 3.13516e-008
2244	 1.4018750000e+002	 2.79393e-008
2245	 1.4025000000e+002	 3.41334e-008
2246	 1.4031250000e+002	 2.68099e-008
2247	 1.4037500000e+002	 2.54498e-008
2248	 1.4043750000e+002	 2.89598e-008
2249	 1.4050000000e+002	 2.71643e-008
2250	 1.4056250000e+002	 3.18836e-008
2251	 1.4062500000e+002	 2.88382e-008
2252	 1.4068750000e+002	 3.07769e-008
2253	 1.4075000000e+002	 2.66445e-008
2254	 1.4081250000e+002	 3.51590e-008
2255	 1.4087500000e+002	 3.23343e-008
2256	 1.4093750000e+002	 2.54901e-008
2257	 1.4100000000e+002	 2.82568e-008
2258	 1.4106250000e+002	 3.44302e-008
2259	 1.4112500000e+002	 3.31830e-008
2260	 1.4118750000e+002	 2.99177e-008
2261	 1.4125000000e+002	 3.15866e-008
2262	 1.4131250000e+002	 3.32271e-008
2263	 1.4137500000e+002	 3.18159e-008
2264	 1.4143750000e+002	 3.23140e-008
2265	 1.4150000000e+002	 3.36135e-008
2266	 1.4156250000e+002	 3.16303e-008
2267	 1.4162500000e+002	 3.64774e-008
2268	 1.4168750000e+002	 2.95237e-008
2269	 1.4175000000e+002	 3.66949e-008
2270	 1.4181250000e+002	 3.52966e-008
2271	 1.4187500000e+002	 3.38536e-008
2272	 1.4193750000e+002	 3.34894e-008
2273	 1.4200000000e+002	 3.38593e-008
2274	 1.4206250000e+002	 3.09184e-008
2275	 1.4212500000e+002	 3.69713e-008
2276	 1.4218750000e+002	 3.13647e-008
2277	 1.4225000000e+002	 3.53242e-008
2278	 1.4231250000e+002	 3.59828e-008
2279	 1.4237500000e+002	 3.20470e-008
2280	 1.4243750000e+002	 3.54122e-008
2281	 1.4250000000e+002	 3.17128e-008
2282	 1.4256250000e+002	 3.77690e-008
2283	 1.4262500000e+002	 2.97123e-008
2284	 1.4268750000e+002	 3.70681e-008
2285	 1.4275000000e+002	 2.78297e-008
2286	 1.4281250000e+002	 3.71425e-008
2287	 1.4287500000e+002	 3.62264e-008
2288	 1.4293750000e+002	 2.89899e-008
2289	 1.4300000000e+002	 3.60818e-008
2290	 1.4306250000e+002	 3.73197e-008
2291	 1.4312500000e+002	 3.37929e-008
2292	 1.4318750000e+002	 3.50362e-008
2293	 1.4325000000e+002	 3.77524e-008
2294	 1.4331250000e+002	 3.17308e-008
2295	 1.4337500000e+002	 3.65406e-008
2296	 1.4343750000e+002	 3.30556e-008
2297	 1.4350000000e+002	 3.84430e-008
2298	 1.4356250000e+002	 3.36753e-008
2299	 1.4362500000e+002	 3.99890e-008
2300	 1.4368750000e+002	 2.87676e-008
2301	 1.4375000000e+002	 3.96955e-008
2302	 1.4381250000e+002	 3.10255e-008
2303	 1.4387500000e+002	 3.88003e-008
2304	 1.4393750000e+002	 3.88506e-008
2305	 1.4400000000e+002	 3.72602e-008
2306	 1.4406250000e+002	 3.31338e-008
2307	 1.4412500000e+002	 3.66739e-008
2308	 1.4418750000e+002	 3.01135e-008
2309	 1.4425000000e+002	 3.94778e-008
2310	 1.4431250000e+002	 3.47539e-008
2311	 1.4437500000e+002	 2.81987e-008
2312	 1.4443750000e+002	 3.82418e-008
2313	 1.4450000000e+002	 3.68427e-008
2314	 1.4456250000e+002	 3.39855e-008
2315	 1.4462500000e+002	 3.35541e-008
2316	 1.4468750000e+002	 3.61846e-008
2317	 1.4475000000e+002	 3.07752e-008
2318	 1.4481250000e+002	 4.16905e-008
2319	 1.4487500000e+002	 2.46689e-008
2320	 1.4493750000e+002	 4.65102e-008
2321	 1.4500000000e+002	 2.82452e-008
2322	 1.4506250000e+002	 3.11130e-008
2323	 1.4512500000e+002	 3.77172e-008
2324	 1.4518750000e+002	 3.68369e-008
2325	 1.4525000000e+002	 3.05417e-008
2326	 1.4531250000e+002	 3.79828e-008
2327	 1.4537500000e+002	 3.71981e-008
2328	 1.4543750000e+002	 3.43323e-008
2329	 1.4550000000e+002	 3.68347e-008
2330	 1.4556250000e+002	 3.91862e-008
2331	 1.4562500000e+002	 2.96748e-008
2332	 1.4568750000e+002	 4.18435e-008
2333	 1.4575000000e+002	 3.04245e-008
2334	 1.4581250000e+002	 3.51660e-008
2335	 1.4587500000e+002	 4.25011e-008
2336	 1.4593750000e+002	 3.25563e-008
2337	 1.4600000000e+002	 3.59997e-008
2338	 1.4606250000e+002	 3.27948e-008
2339	 1.4612500000e+002	 3.83383e-008
2340	 1.4618750000e+002	 3.57091e-008
2341	 1.4625000000e+002	 3.17465e-008
2342	 1.4631250000e+002	 3.91462e-008
2343	 1.4637500000e+002	 3.61865e-008
2344	 1.4643750000e+002	 3.87996e-008
2345	 1.4650000000e+002	 2.92062e-008
2346	 1.4656250000e+002	 2.98667e-008
2347	 1.4662500000e+002	 3.73399e-008
2348	 1.4668750000e+002	 2.94605e-008
2349	 1.4675000000e+002	 3.43384e-008
2350	 1.4681250000e+002	 2.96102e-008
2351	 1.4687500000e+002	 2.69931e-008
2352	 1.4693750000e+002	 3.65370e-008
2353	 1.4700000000e+002	 3.22267e-008
2354	 1.4706250000e+002	 2.40280e-008
2355	 1.4712500000e+002	 3.05330e-008
2356	 1.4718750000e+002	 2.90170e-008
2357	 1.4725000000e+002	 3.17375e-008
2358	 1.4731250000e+002	 2.87458e-008
2359	 1.4737500000e+002	 2.38759e-008
2360	 1.4743750000e+002	 2.31391e-008
2361	 1.4750000000e+002	 3.58951e-008
2362	 1.4756250000e+002	 2.04235e-008
2363	 1.4762500000e+002	 3.07116e-008
2364	 1.4768750000e+002	 2.38831e-008
2365	 1.4775000000e+002	 2.79219e-008
2366	 1.4781250000e+002	 2.56437e-008
2367	 1.4787500000e+002	 2.07576e-008
2368	 1.4793750000e+002	 3.43877e-008
2369	 1.4800000000e+002	 2.26965e-008
2370	 1.4806250000e+002	 3.21330e-008
2371	 1.4812500000e+002	 2.41734e-008
2372	 1.4818750000e+002	 2.96476e-008
2373	 1.4825000000e+002	 2.74052e-008
2374	 1.4831250000e+002	 3.00710e-008
2375	 1.4837500000e+002	 2.07015e-008
2376	 1.4843750000e+002	 3.27715e-008
2377	 1.4850000000e+002	 2.95338e-008
2378	 1.4856250000e+002	 2.80131e-008
2379	 1.4862500000e+002	 2.53685e-008
2380	 1.4868750000e+002	 2.68140e-008
2381	 1.4875000000e+002	 2.44619e-008
2382	 1.4881250000e+002	 3.18351e-008
2383	 1.4887500000e+002	 2.12788e-008
2384	 1.4893750000e+002	 3.79352e-008
2385	 1.4900000000e+002	 3.02884e-008
2386	 1.4906250000e+002	 2.84855e-008
2387	 1.4912500000e+002	 2.86447e-008
2388	 1.4918750000e+002	 2.58611e-008
2389	 1.4925000000e+002	 3.06677e-008
2390	 1.4931250000e+002	 2.80273e-008
2391	 1.4937500000e+002	 3.00350e-008
2392	 1.4943750000e+002	 2.59817e-008
2393	 1.4950000000e+002	 3.31788e-008
2394	 1.4956250000e+002	 2.84373e-008
2395	 1.4962500000e+002	 2.87357e-008
2396	 1.4968750000e+002	 2.60649e-008
2397	 1.4975000000e+002	 2.77155e-008
2398	 1.4981250000e+002	 3.49900e-008
2399	 1.4987500000e+002	 2.81370e-008
2400	 1.4993750000e+002	 3.64402e-008
2401	 1.5000000000e+002	 2.44827e-008
2402	 1.5006250000e+002	 3.26633e-008
2403	 1.5012500000e+002	 2.68932e-008
2404	 1.5018750000e+002	 3.25836e-008
2405	 1.5025000000e+002	 3.21062e-008
2406	 1.5031250000e+002	 2.96187e-008
2407	 1.5037500000e+002	 3.16612e-008
2408	 1.5043750000e+002	 3.43753e-008
2409	 1.5050000000e+002	 2.87874e-008
2410	 1.5056250000e+002	 3.00067e-008
2411	 1.5062500000e+002	 3.24798e-008
2412	 1.5068750000e+002	 3.34775e-008
2413	 1.5075000000e+002	 2.79462e-008
2414	 1.5081250000e+002	 2.86271e-008
2415	 1.5087500000e+002	 3.28424e-008
2416	 1.5093750000e+002	 3.02805e-008
2417	 1.5100000000e+002	 2.92075e-008
2418	 1.5106250000e+002	 3.02250e-008
2419	 1.5112500000e+002	 3.13929e-008
2420	 1.5118750000e+002	 3.10914e-008
2421	 1.5125000000e+002	 2.84416e-008
2422	 1.5131250000e+002	 2.44137e-008
2423	 1.5137500000e+002	 3.38820e-008
2424	 1.5143750000e+002	 2.39324e-008
2425	 1.5150000000e+002	 2.78813e-008
2426	 1.5156250000e+002	 2.64895e-008
2427	 1.5162500000e+002	 3.06826e-008
2428	 1.5168750000e+002	 2.30275e-008
2429	 1.5175000000e+002	 2.71743e-008
2430	 1.5181250000e+002	 2.44108e-008
2431	 1.5187500000e+002	 3.04184e-008
2432	 1.5193750000e+002	 2.60551e-008
2433	 1.5200000000e+002	 2.92899e-008
2434	 1.5206250000e+002	 2.44657e-008
2435	 1.5212500000e+002	 3.22004e-008
2436	 1.5218750000e+002	 2.37299e-008
2437	 1.5225000000e+002	 3.29565e-008
2438	 1.5231250000e+002	 2.43773e-008
2439	 1.5237500000e+002	 2.76373e-008
2440	 1.5243750000e+002	 3.47182e-008
2441	 1.5250000000e+002	 2.82128e-008
2442	 1.5256250000e+002	 3.10238e-008
2443	 1.5262500000e+002	 2.90389e-008
2444	 1.5268750000e+002	 3.01391e-008
2445	 1.5275000000e+002	 2.88077e-008
2446	 1.5281250000e+002	 3.17940e-008
2447	 1.5287500000e+002	 3.33807e-008
2448	 1.5293750000e+002	 2.77533e-008
2449	 1.5300000000e+002	 3.79202e-008
2450	 1.5306250000e+002	 2.47494e-008
2451	 1.5312500000e+002	 3.79176e-008
2452	 1.5318750000e+002	 3.03764e-008
2453	 1.5325000000e+002	 3.28521e-008
2454	 1.5331250000e+002	 3.13611e-008
2455	 1.5337500000e+002	 3.45362e-008
2456	 1.5343750000e+002	 2.87820e-008
2457	 1.5350000000e+002	 3.44431e-008
2458	 1.5356250000e+002	 3.18540e-008
2459	 1.5362500000e+002	 3.11484e-008
2460	 1.5368750000e+002	 2.94977e-008
2461	 1.5375000000e+002	 3.45902e-008
2462	 1.5381250000e+002	 3.46069e-008
2463	 1.5387500000e+002	 3.45761e-008
2464	 1.5393750000e+002	 2.75816e-008
2465	 1.5400000000e+002	 3.54228e-008
2466	 1.5406250000e+002	 2.32645e-008
2467	 1.5412500000e+002	 3.18509e-008
2468	 1.5418750000e+002	 3.59294e-008
2469	 1.5425000000e+002	 2.90540e-008
2470	 1.5431250000e+002	 3.12049e-008
2471	 1.5437500000e+002	 3.02316e-008
2472	 1.5443750000e+002	 2.53853e-008
2473	 1.5450000000e+002	 3.82014e-008
2474	 1.5456250000e+002	 2.27791e-008
2475	 1.5462500000e+002	 3.54286e-008
2476	 1.5468750000e+002	 2.88683e-008
2477	 1.5475000000e+002	 3.00786e-008
2478	 1.5481250000e+002	 2.74613e-008
2479	 1.5487500000e+002	 3.18828e-008
2480	 1.5493750000e+002	 2.59593e-008
2481	 1.5500000000e+002	 2.95858e-008
2482	 1.5506250000e+002	 2.83190e-008
2483	 1.5512500000e+002	 2.58068e-008
2484	 1.5518750000e+002	 3.44217e-008
2485	 1.5525000000e+002	 1.98861e-008
2486	 1.5531250000e+002	 3.19820e-008
2487	 1.5537500000e+002	 2.42244e-008
2488	 1.5543750000e+002	 2.97247e-008
2489	 1.5550000000e+002	 2.26031e-008
2490	 1.5556250000e+002	 3.08977e-008
2491	 1.5562500000e+002	 2.98753e-008
2492	 1.5568750000e+002	 2.73819e-008
2493	 1.5575000000e+002	 2.49455e-008
2494	 1.5581250000e+002	 2.94621e-008
2495	 1.5587500000e+002	 3.01972e-008
2496	 1.5593750000e+002	 2.32807e-008
2497	 1.5600000000e+002	 2.82711e-008
2498	 1.5606250000e+002	 3.26331e-008
2499	 1.5612500000e+002	 2.17599e-008
2500	 1.5618750000e+002	 3.08669e-008
2501	 1.5625000000e+002	 2.93739e-008
2502	 1.5631250000e+002	 2.91419e-008
2503	 1.5637500000e+002	 2.95305e-008
2504	 1.5643750000e+002	 2.78249e-008
2505	 1.5650000000e+002	 2.44287e-008
2506	 1.5656250000e+002	 3.37312e-008
2507	 1.5662500000e+002	 2.48227e-008
2508	 1.5668750000e+002	 2.74058e-008
2509	 1.5675000000e+002	 3.20752e-008
2510	 1.5681250000e+002	 2.80382e-008
2511	 1.5687500000e+002	 3.20345e-008
2512	 1.5693750000e+002	 2.79056e-008
2513	 1.5700000000e+002	 3.41214e-008
2514	 1.5706250000e+002	 2.53651e-008
2515	 1.5712500000e+002	 2.92480e-008
2516	 1.5718750000e+002	 2.87335e-008
2517	 1.5725000000e+002	 3.06718e-008
2518	 1.5731250000e+002	 2.91977e-008
2519	 1.5737500000e+002	 2.80680e-008
2520	 1.5743750000e+002	 2.85650e-008
2521	 1.5750000000e+002	 2.98355e-008
2522	 1.5756250000e+002	 3.01330e-008
2523	 1.5762500000e+002	 3.02132e-008
2524	 1.5768750000e+002	 2.62853e-008
2525	 1.5775000000e+002	 2.95304e-008
2526	 1.5781250000e+002	 2.40800e-008
2527	 1.5787500000e+002	 3.37321e-008
2528	 1.5793750000e+002	 2.19483e-008
2529	 1.5800000000e+002	 3.53270e-008
2530	 1.5806250000e+002	 2.29761e-008
2531	 1.5812500000e+002	 3.20805e-008
2532	 1.5818750000e+002	 2.35884e-008
2533	 1.5825000000e+002	 2.34170e-008
2534	 1.5831250000e+002	 3.70549e-008
2535	 1.5837500000e+002	 2.44239e-008
2536	 1.5843750000e+002	 2.14702e-008
2537	 1.5850000000e+002	 2.46683e-008
2538	 1.5856250000e+002	 3.00976e-008
2539	 1.5862500000e+002	 2.63479e-008
2540	 1.5868750000e+002	 3.13901e-008
2541	 1.5875000000e+002	 2.40055e-008
2542	 1.5881250000e+002	 2.45932e-008
2543	 1.5887500000e+002	 2.79363e-008
2544	 1.5893750000e+002	 2.86756e-008
2545	 1.5900000000e+002	 2.85036e-008
2546	 1.5906250000e+002	 2.85633e-008
2547	 1.5912500000e+002	 2.78255e-008
2548	 1.5918750000e+002	 2.55034e-008
2549	 1.5925000000e+002	 2.92483e-008
2550	 1.5931250000e+002	 3.26496e-008
2551	 1.5937500000e+002	 2.38198e-008
2552	 1.5943750000e+002	 2.74348e-008
2553	 1.5950000000e+002	 2.68458e-008
2554	 1.5956250000e+002	 3.27839e-008
2555	 1.5962500000e+002	 2.75462e-008
2556	 1.5968750000e+002	 3.30543e-008
2557	 1.5975000000e+002	 2.60585e-008
2558	 1.5981250000e+002	 3.16947e-008
2559	 1.5987500000e+002	 2.99391e-008
2560	 1.5993750000e+002	 2.35567e-008
2561	 1.6000000000e+002	 3.50328e-008
2562	 1.6006250000e+002	 2.76936e-008
2563	 1.6012500000e+002	 2.90490e-008
2564	 1.6018750000e+002	 2.64943e-008
2565	 1.6025000000e+002	 2.54894e-008
2566	 1.6031250000e+002	 3.49565e-008
2567	 1.6037500000e+002	 2.08848e-008
2568	 1.6043750000e+002	 2.77300e-008
2569	 1.6050000000e+002	 3.37296e-008
2570	 1.6056250000e+002	 2.08106e-008
2571	 1.6062500000e+002	 3.56124e-008
2572	 1.6068750000e+002	 3.33850e-008
2573	 1.6075000000e+002	 2.66834e-008
2574	 1.6081250000e+002	 3.06708e-008
2575	 1.6087500000e+002	 3.06901e-008
2576	 1.6093750000e+002	 3.28743e-008
2577	 1.6100000000e+002	 2.91981e-008
2578	 1.6106250000e+002	 3.69733e-008
2579	 1.6112500000e+002	 2.84546e-008
2580	 1.6118750000e+002	 3.29099e-008
2581	 1.6125000000e+002	 3.15484e-008
2582	 1.6131250000e+002	 3.25122e-008
2583	 1.6137500000e+002	 2.99794e-008
2584	 1.6143750000e+002	 3.25468e-008
2585	 1.6150000000e+002	 2.92650e-008
2586	 1.6156250000e+002	 3.19062e-008
2587	 1.6162500000e+002	 3.37639e-008
2588	 1.6168750000e+002	 2.91488e-008
2589	 1.6175000000e+002	 3.06658e-008
2590	 1.6181250000e+002	 2.62734e-008
2591	 1.6187500000e+002	 3.93696e-008
2592	 1.6193750000e+002	 2.29546e-008
2593	 1.6200000000e+002	 3.56198e-008
2594	 1.6206250000e+002	 2.94533e-008
2595	 1.6212500000e+002	 2.70293e-008
2596	 1.6218750000e+002	 2.53535e-008
2597	 1.6225000000e+002	 3.47044e-008
2598	 1.6231250000e+002	 2.20280e-008
2599	 1.6237500000e+002	 3.25865e-008
2600	 1.6243750000e+002	 2.45498e-008
2601	 1.6250000000e+002	 2.28228e-008
2602	 1.6256250000e+002	 2.45785e-008
2603	 1.6262500000e+002	 2.76121e-008
2604	 1.6268750000e+002	 2.21964e-008
2605	 1.6275000000e+002	 2.33594e-008
2606	 1.6281250000e+002	 2.96195e-008
2607	 1.6287500000e+002	 2.64832e-008
2608	 1.6293750000e+002	 2.23600e-008
2609	 1.6300000000e+002	 2.72734e-008
2610	 1.6306250000e+002	 2.46616e-008
2611	 1.6312500000e+002	 1.97095e-008
2612	 1.6318750000e+002	 2.30163e-008
2613	 1.6325000000e+002	 2.72752e-008
2614	 1.6331250000e+002	 2.01902e-008
2615	 1.6337500000e+002	 2.55747e-008
2616	 1.6343750000e+002	 2.29512e-008
2617	 1.6350000000e+002	 2.44899e-008
2618	 1.6356250000e+002	 2.46781e-008
2619	 1.6362500000e+002	 2.27067e-008
2620	 1.6368750000e+002	 2.43997e-008
2621	 1.6375000000e+002	 3.05769e-008
2622	 1.6381250000e+002	 2.42563e-008
2623	 1.6387500000e+002	 2.43486e-008
2624	 1.6393750000e+002	 2.35585e-008
2625	 1.6400000000e+002	 3.05943e-008
2626	 1.6406250000e+002	 2.37120e-008
2627	 1.6412500000e+002	 3.02633e-008
2628	 1.6418750000e+002	 2.22051e-008
2629	 1.6425000000e+002	 2.94869e-008
2630	 1.6431250000e+002	 2.63196e-008
2631	 1.6437500000e+002	 2.49764e-008
2632	 1.6443750000e+002	 2.83829e-008
2633	 1.6450000000e+002	 2.90629e-008
2634	 1.6456250000e+002	 2.17159e-008
2635	 1.6462500000e+002	 3.36890e-008
2636	 1.6468750000e+002	 2.25236e-008
2637	 1.6475000000e+002	 2.63360e-008
2638	 1.6481250000e+002	 2.30200e-008
2639	 1.6487500000e+002	 3.36645e-008
2640	 1.6493750000e+002	 2.51942e-008
2641	 1.6500000000e+002	 3.06768e-008
2642	 1.6506250000e+002	 2.36224e-008
2643	 1.6512500000e+002	 2.49292e-008
2644	 1.6518750000e+002	 2.66701e-008
2645	 1.6525000000e+002	 2.48949e-008
2646	 1.6531250000e+002	 2.46355e-008
2647	 1.6537500000e+002	 2.91781e-008
2648	 1.6543750000e+002	 2.35046e-008
2649	 1.6550000000e+002	 2.30404e-008
2650	 1.6556250000e+002	 2.83076e-008
2651	 1.6562500000e+002	 2.77776e-008
2652	 1.6568750000e+002	 2.41828e-008
2653	 1.6575000000e+002	 2.39858e-008
2654	 1.6581250000e+002	 2.77118e-008
2655	 1.6587500000e+002	 2.10073e-008
2656	 1.6593750000e+002	 2.65869e-008
2657	 1.6600000000e+002	 2.51431e-008
2658	 1.6606250000e+002	 2.69046e-008
2659	 1.6612500000e+002	 2.55122e-008
2660	 1.6618750000e+002	 2.41203e-008
2661	 1.6625000000e+002	 2.15455e-008
2662	 1.6631250000e+002	 2.59883e-008
2663	 1.6637500000e+002	 2.51798e-008
2664	 1.6643750000e+002	 2.03477e-008
2665	 1.6650000000e+002	 2.47847e-008
2666	 1.6656250000e+002	 2.31993e-008
2667	 1.6662500000e+002	 2.55367e-008
2668	 1.6668750000e+002	 2.55414e-008
2669	 1.6675000000e+002	 2.40410e-008
2670	 1.6681250000e+002	 2.43578e-008
2671	 1.6687500000e+002	 2.14538e-008
2672	 1.6693750000e+002	 2.27627e-008
2673	 1.6700000000e+002	 2.00953e-008
2674	 1.6706250000e+002	 2.42647e-008
2675	 1.6712500000e+002	 2.27056e-008
2676	 1.6718750000e+002	 2.10059e-008
2677	 1.6725000000e+002	 2.85428e-008
2678	 1.6731250000e+002	 1.77412e-008
2679	 1.6737500000e+002	 1.97981e-008
2680	 1.6743750000e+002	 2.48358e-008
2681	 1.6750000000e+002	 2.51378e-008
2682	 1.6756250000e+002	 2.18038e-008
2683	 1.6762500000e+002	 2.54962e-008
2684	 1.6768750000e+002	 2.50732e-008
2685	 1.6775000000e+002	 2.47518e-008
2686	 1.6781250000e+002	 2.41602e-008
2687	 1.6787500000e+002	 2.77985e-008
2688	 1.6793750000e+002	 2.61401e-008
2689	 1.6800000000e+002	 2.36110e-008
2690	 1.6806250000e+002	 3.07033e-008
2691	 1.6812500000e+002	 2.51341e-008
2692	 1.6818750000e+002	 3.54783e-008
2693	 1.6825000000e+002	 2.81095e-008
2694	 1.6831250000e+002	 3.17328e-008
2695	 1.6837500000e+002	 2.09139e-008
2696	 1.6843750000e+002	 4.04919e-008
2697	 1.6850000000e+002	 2.78584e-008
2698	 1.6856250000e+002	 3.61107e-008
2699	 1.6862500000e+002	 2.98102e-008
2700	 1.6868750000e+002	 3.32288e-008
2701	 1.6875000000e+002	 2.41494e-008
2702	 1.6881250000e+002	 3.50956e-008
2703	 1.6887500000e+002	 3.18307e-008
2704	 1.6893750000e+002	 3.04715e-008
2705	 1.6900000000e+002	 3.08790e-008
2706	 1.6906250000e+002	 3.40917e-008
2707	 1.6912500000e+002	 2.66385e-008
2708	 1.6918750000e+002	 3.84991e-008
2709	 1.6925000000e+002	 2.75385e-008
2710	 1.6931250000e+002	 3.21461e-008
2711	 1.6937500000e+002	 3.03744e-008
2712	 1.6943750000e+002	 3.24022e-008
2713	 1.6950000000e+002	 2.79538e-008
2714	 1.6956250000e+002	 3.89648e-008
2715	 1.6962500000e+002	 2.53702e-008
2716	 1.6968750000e+002	 2.97388e-008
2717	 1.6975000000e+002	 2.87397e-008
2718	 1.6981250000e+002	 2.08885e-008
2719	 1.6987500000e+002	 3.47435e-008
2720	 1.6993750000e+002	 2.68770e-008
2721	 1.7000000000e+002	 3.13812e-008
2722	 1.7006250000e+002	 2.11758e-008
2723	 1.7012500000e+002	 2.81683e-008
2724	 1.7018750000e+002	 2.39916e-008
2725	 1.7025000000e+002	 2.41361e-008
2726	 1.7031250000e+002	 2.47485e-008
2727	 1.7037500000e+002	 2.12283e-008
2728	 1.7043750000e+002	 3.16197e-008
2729	 1.7050000000e+002	 1.89778e-008
2730	 1.7056250000e+002	 3.04173e-008
2731	 1.7062500000e+002	 2.46313e-008
2732	 1.7068750000e+002	 2.79476e-008
2733	 1.7075000000e+002	 2.19391e-008
2734	 1.7081250000e+002	 2.70882e-008
2735	 1.7087500000e+002	 2.83412e-008
2736	 1.7093750000e+002	 2.37955e-008
2737	 1.7100000000e+002	 2.88070e-008
2738	 1.7106250000e+002	 2.15594e-008
2739	 1.7112500000e+002	 3.06491e-008
2740	 1.7118750000e+002	 2.29186e-008
2741	 1.7125000000e+002	 3.55569e-008
2742	 1.7131250000e+002	 2.30440e-008
2743	 1.7137500000e+002	 2.93388e-008
2744	 1.7143750000e+002	 2.96892e-008
2745	 1.7150000000e+002	 2.16273e-008
2746	 1.7156250000e+002	 2.81895e-008
2747	 1.7162500000e+002	 2.82048e-008
2748	 1.7168750000e+002	 2.27594e-008
2749	 1.7175000000e+002	 2.88458e-008
2750	 1.7181250000e+002	 2.38514e-008
2751	 1.7187500000e+002	 3.05060e-008
2752	 1.7193750000e+002	 2.41676e-008
2753	 1.7200000000e+002	 2.64985e-008
2754	 1.7206250000e+002	 2.61014e-008
2755	 1.7212500000e+002	 2.73870e-008
2756	 1.7218750000e+002	 2.43192e-008
2757	 1.7225000000e+002	 2.32384e-008
2758	 1.7231250000e+002	 2.86081e-008
2759	 1.7237500000e+002	 2.00650e-008
2760	 1.7243750000e+002	 3.36331e-008
2761	 1.7250000000e+002	 1.76178e-008
2762	 1.7256250000e+002	 2.45799e-008
2763	 1.7262500000e+002	 3.13943e-008
2764	 1.7268750000e+002	 1.56397e-008
2765	 1.7275000000e+002	 3.47419e-008
2766	 1.7281250000e+002	 2.03607e-008
2767	 1.7287500000e+002	 2.54737e-008
2768	 1.7293750000e+002	 2.57100e-008
2769	 1.7300000000e+002	 2.59233e-008
2770	 1.7306250000e+002	 2.19421e-008
2771	 1.7312500000e+002	 2.31015e-008
2772	 1.7318750000e+002	 2.20315e-008
2773	 1.7325000000e+002	 2.54387e-008
2774	 1.7331250000e+002	 2.39261e-008
2775	 1.7337500000e+002	 2.39482e-008
2776	 1.7343750000e+002	 2.50064e-008
2777	 1.7350000000e+002	 2.36048e-008
2778	 1.7356250000e+002	 2.07889e-008
2779	 1.7362500000e+002	 2.23080e-008
2780	 1.7368750000e+002	 2.05004e-008
2781	 1.7375000000e+002	 2.53984e-008
2782	 1.7381250000e+002	 2.42780e-008
2783	 1.7387500000e+002	 1.66530e-008
2784	 1.7393750000e+002	 2.79020e-008
2785	 1.7400000000e+002	 1.85372e-008
2786	 1.7406250000e+002	 1.97678e-008
2787	 1.7412500000e+002	 1.90934e-008
2788	 1.7418750000e+002	 2.32475e-008
2789	 1.7425000000e+002	 1.63467e-008
2790	 1.7431250000e+002	 1.75778e-008
2791	 1.7437500000e+002	 2.19305e-008
2792	 1.7443750000e+002	 1.75200e-008
2793	 1.7450000000e+002	 2.10025e-008
2794	 1.7456250000e+002	 1.46589e-008
2795	 1.7462500000e+002	 1.61749e-008
2796	 1.7468750000e+002	 2.12438e-008
2797	 1.7475000000e+002	 2.01740e-008
2798	 1.7481250000e+002	 1.94861e-008
2799	 1.7487500000e+002	 1.89351e-008
2800	 1.7493750000e+002	 1.80773e-008
2801	 1.7500000000e+002	 1.87375e-008
2802	 1.7506250000e+002	 2.19982e-008
2803	 1.7512500000e+002	 1.92102e-008
2804	 1.7518750000e+002	 2.27288e-008
2805	 1.7525000000e+002	 2.11418e-008
2806	 1.7531250000e+002	 1.66677e-008
2807	 1.7537500000e+002	 2.82361e-008
2808	 1.7543750000e+002	 1.92387e-008
2809	 1.7550000000e+002	 2.50213e-008
2810	 1.7556250000e+002	 2.23976e-008
2811	 1.7562500000e+002	 2.73245e-008
2812	 1.7568750000e+002	 2.13987e-008
2813	 1.7575000000e+002	 2.65325e-008
2814	 1.7581250000e+002	 2.27168e-008
2815	 1.7587500000e+002	 2.82037e-008
2816	 1.7593750000e+002	 2.70682e-008
2817	 1.7600000000e+002	 2.68905e-008
2818	 1.7606250000e+002	 2.48654e-008
2819	 1.7612500000e+002	 2.61584e-008
2820	 1.7618750000e+002	 3.00454e-008
2821	 1.7625000000e+002	 1.99958e-008
2822	 1.7631250000e+002	 3.11090e-008
2823	 1.7637500000e+002	 2.96530e-008
2824	 1.7643750000e+002	 2.35526e-008
2825	 1.7650000000e+002	 2.65352e-008
2826	 1.7656250000e+002	 3.16762e-008
2827	 1.7662500000e+002	 2.19156e-008
2828	 1.7668750000e+002	 2.47282e-008
2829	 1.7675000000e+002	 2.66653e-008
2830	 1.7681250000e+002	 2.31116e-008
2831	 1.7687500000e+002	 3.04941e-008
2832	 1.7693750000e+002	 2.51900e-008
2833	 1.7700000000e+002	 2.25279e-008
2834	 1.7706250000e+002	 2.01189e-008
2835	 1.7712500000e+002	 2.27067e-008
2836	 1.7718750000e+002	 3.08318e-008
2837	 1.7725000000e+002	 1.95879e-008
2838	 1.7731250000e+002	 2.91185e-008
2839	 1.7737500000e+002	 2.16751e-008
2840	 1.7743750000e+002	 2.53533e-008
2841	 1.7750000000e+002	 2.28141e-008
2842	 1.7756250000e+002	 2.60857e-008
2843	 1.7762500000e+002	 2.52272e-008
2844	 1.7768750000e+002	 2.12578e-008
2845	 1.7775000000e+002	 3.21142e-008
2846	 1.7781250000e+002	 3.14011e-008
2847	 1.7787500000e+002	 2.15138e-008
2848	 1.7793750000e+002	 2.92525e-008
2849	 1.7800000000e+002	 2.56592e-008
2850	 1.7806250000e+002	 2.89694e-008
2851	 1.7812500000e+002	 2.88856e-008
2852	 1.7818750000e+002	 2.72494e-008
2853	 1.7825000000e+002	 2.91854e-008
2854	 1.7831250000e+002	 2.66738e-008
2855	 1.7837500000e+002	 2.94026e-008
2856	 1.7843750000e+002	 2.43369e-008
2857	 1.7850000000e+002	 3.26325e-008
2858	 1.7856250000e+002	 3.26215e-008
2859	 1.7862500000e+002	 3.03830e-008
2860	 1.7868750000e+002	 3.21681e-008
2861	 1.7875000000e+002	 2.83729e-008
2862	 1.7881250000e+002	 2.73038e-008
2863	 1.7887500000e+002	 3.34081e-008
2864	 1.7893750000e+002	 2.66172e-008
2865	 1.7900000000e+002	 2.59408e-008
2866	 1.7906250000e+002	 3.42162e-008
2867	 1.7912500000e+002	 2.65511e-008
2868	 1.7918750000e+002	 3.81645e-008
2869	 1.7925000000e+002	 2.57126e-008
2870	 1.7931250000e+002	 3.19831e-008
2871	 1.7937500000e+002	 3.30415e-008
2872	 1.7943750000e+002	 2.72889e-008
2873	 1.7950000000e+002	 3.70704e-008
2874	 1.7956250000e+002	 3.04696e-008
2875	 1.7962500000e+002	 3.64077e-008
2876	 1.7968750000e+002	 3.28631e-008
2877	 1.7975000000e+002	 2.44652e-008
2878	 1.7981250000e+002	 4.13989e-008
2879	 1.7987500000e+002	 3.08828e-008
2880	 1.7993750000e+002	 3.08078e-008
2881	 1.8000000000e+002	 3.34017e-008
2882	 1.8006250000e+002	 3.07985e-008
2883	 1.8012500000e+002	 3.02659e-008
2884	 1.8018750000e+002	 3.13239e-008
2885	 1.8025000000e+002	 3.31747e-008
2886	 1.8031250000e+002	 2.52292e-008
2887	 1.8037500000e+002	 3.72246e-008
2888	 1.8043750000e+002	 2.90705e-008
2889	 1.8050000000e+002	 3.29572e-008
2890	 1.8056250000e+002	 2.72092e-008
2891	 1.8062500000e+002	 3.15789e-008
2892	 1.8068750000e+002	 2.47130e-008
2893	 1.8075000000e+002	 3.19343e-008
2894	 1.8081250000e+002	 2.79611e-008
2895	 1.8087500000e+002	 2.83241e-008
2896	 1.8093750000e+002	 2.28686e-008
2897	 1.8100000000e+002	 2.58342e-008
2898	 1.8106250000e+002	 2.52595e-008
2899	 1.8112500000e+002	 2.93295e-008
2900	 1.8118750000e+002	 2.55033e-008
2901	 1.8125000000e+002	 2.37256e-008
2902	 1.8131250000e+002	 2.52123e-008
2903	 1.8137500000e+002	 2.09321e-008
2904	 1.8143750000e+002	 2.08410e-008
2905	 1.8150000000e+002	 2.78439e-008
2906	 1.8156250000e+002	 1.67904e-008
2907	 1.8162500000e+002	 2.23855e-008
2908	 1.8168750000e+002	 1.76834e-008
2909	 1.8175000000e+002	 1.87848e-008
2910	 1.8181250000e+002	 2.04047e-008
2911	 1.8187500000e+002	 2.04450e-008
2912	 1.8193750000e+002	 1.94837e-008
2913	 1.8200000000e+002	 1.93860e-008
2914	 1.8206250000e+002	 1.77748e-008
2915	 1.8212500000e+002	 1.74209e-008
2916	 1.8218750000e+002	 2.11770e-008
2917	 1.8225000000e+002	 1.54083e-008
2918	 1.8231250000e+002	 2.38393e-008
2919	 1.8237500000e+002	 1.74332e-008
2920	 1.8243750000e+002	 1.90198e-008
2921	 1.8250000000e+002	 1.77971e-008
2922	 1.8256250000e+002	 1.76278e-008
2923	 1.8262500000e+002	 2.08723e-008
2924	 1.8268750000e+002	 2.23942e-008
2925	 1.8275000000e+002	 1.59203e-008
2926	 1.8281250000e+002	 1.78767e-008
2927	 1.8287500000e+002	 1.80153e-008
2928	 1.8293750000e+002	 2.16982e-008
2929	 1.8300000000e+002	 1.78422e-008
2930	 1.8306250000e+002	 2.24601e-008
2931	 1.8312500000e+002	 1.65692e-008
2932	 1.8318750000e+002	 1.87546e-008
2933	 1.8325000000e+002	 2.22725e-008
2934	 1.8331250000e+002	 2.13493e-008
2935	 1.8337500000e+002	 2.55280e-008
2936	 1.8343750000e+002	 2.21130e-008
2937	 1.8350000000e+002	 2.08343e-008
2938	 1.8356250000e+002	 2.16398e-008
2939	 1.8362500000e+002	 2.46961e-008
2940	 1.8368750000e+002	 2.13557e-008
2941	 1.8375000000e+002	 2.29723e-008
2942	 1.8381250000e+002	 2.07576e-008
2943	 1.8387500000e+002	 1.84739e-008
2944	 1.8393750000e+002	 2.25380e-008
2945	 1.8400000000e+002	 2.69373e-008
2946	 1.8406250000e+002	 1.99878e-008
2947	 1.8412500000e+002	 2.00919e-008
2948	 1.8418750000e+002	 1.93103e-008
2949	 1.8425000000e+002	 1.78255e-008
2950	 1.8431250000e+002	 2.09959e-008
2951	 1.8437500000e+002	 2.38542e-008
2952	 1.8443750000e+002	 2.06810e-008
2953	 1.8450000000e+002	 1.68446e-008
2954	 1.8456250000e+002	 1.73629e-008
2955	 1.8462500000e+002	 2.45492e-008
2956	 1.8468750000e+002	 1.57126e-008
2957	 1.8475000000e+002	 1.59125e-008
2958	 1.8481250000e+002	 2.06848e-008
2959	 1.8487500000e+002	 1.59641e-008
2960	 1.8493750000e+002	 2.03632e-008
2961	 1.8500000000e+002	 1.96208e-008
2962	 1.8506250000e+002	 2.02854e-008
2963	 1.8512500000e+002	 2.27881e-008
2964	 1.8518750000e+002	 1.43936e-008
2965	 1.8525000000e+002	 1.58823e-008
2966	 1.8531250000e+002	 2.27255e-008
2967	 1.8537500000e+002	 1.87547e-008
2968	 1.8543750000e+002	 1.76209e-008
2969	 1.8550000000e+002	 1.68101e-008
2970	 1.8556250000e+002	 2.36070e-008
2971	 1.8562500000e+002	 2.02452e-008
2972	 1.8568750000e+002	 2.39168e-008
2973	 1.8575000000e+002	 1.69804e-008
2974	 1.8581250000e+002	 1.98718e-008
2975	 1.8587500000e+002	 2.28141e-008
2976	 1.8593750000e+002	 1.96101e-008
2977	 1.8600000000e+002	 1.76929e-008
2978	 1.8606250000e+002	 2.76471e-008
2979	 1.8612500000e+002	 1.65792e-008
2980	 1.8618750000e+002	 2.85304e-008
2981	 1.8625000000e+002	 2.42728e-008
2982	 1.8631250000e+002	 2.56681e-008
2983	 1.8637500000e+002	 2.30563e-008
2984	 1.8643750000e+002	 2.65785e-008
2985	 1.8650000000e+002	 2.57735e-008
2986	 1.8656250000e+002	 2.77462e-008
2987	 1.8662500000e+002	 2.25965e-008
2988	 1.8668750000e+002	 3.20961e-008
2989	 1.8675000000e+002	 2.49064e-008
2990	 1.8681250000e+002	 2.48616e-008
2991	 1.8687500000e+002	 2.80236e-008
2992	 1.8693750000e+002	 2.70655e-008
2993	 1.8700000000e+002	 2.47837e-008
2994	 1.8706250000e+002	 2.72047e-008
2995	 1.8712500000e+002	 2.28507e-008
2996	 1.8718750000e+002	 3.19775e-008
2997	 1.8725000000e+002	 3.14892e-008
2998	 1.8731250000e+002	 2.39743e-008
2999	 1.8737500000e+002	 2.71930e-008
3000	 1.8743750000e+002	 2.69612e-008
3001	 1.8750000000e+002	 2.95204e-008
3002	 1.8756250000e+002	 2.20059e-008
3003	 1.8762500000e+002	 3.33213e-008
3004	 1.8768750000e+002	 2.50420e-008
3005	 1.8775000000e+002	 2.63759e-008
3006	 1.8781250000e+002	 2.77160e-008
3007	 1.8787500000e+002	 3.35180e-008
3008	 1.8793750000e+002	 2.16775e-008
3009	 1.8800000000e+002	 3.03087e-008
3010	 1.8806250000e+002	 2.97814e-008
3011	 1.8812500000e+002	 3.22651e-008
3012	 1.8818750000e+002	 2.54332e-008
3013	 1.8825000000e+002	 3.32297e-008
3014	 1.8831250000e+002	 3.19058e-008
3015	 1.8837500000e+002	 2.83239e-008
3016	 1.8843750000e+002	 2.88125e-008
3017	 1.8850000000e+002	 3.66103e-008
3018	 1.8856250000e+002	 3.02123e-008
3019	 1.8862500000e+002	 2.71695e-008
3020	 1.8868750000e+002	 3.37120e-008
3021	 1.8875000000e+002	 2.57901e-008
3022	 1.8881250000e+002	 3.08282e-008
3023	 1.8887500000e+002	 3.13437e-008
3024	 1.8893750000e+002	 2.95905e-008
3025	 1.8900000000e+002	 1.96317e-008
3026	 1.8906250000e+002	 3.01614e-008
3027	 1.8912500000e+002	 3.11294e-008
3028	 1.8918750000e+002	 2.66710e-008
3029	 1.8925000000e+002	 2.93695e-008
3030	 1.8931250000e+002	 2.02329e-008
3031	 1.8937500000e+002	 2.89508e-008
3032	 1.8943750000e+002	 2.37596e-008
3033	 1.8950000000e+002	 2.37415e-008
3034	 1.8956250000e+002	 2.53495e-008
3035	 1.8962500000e+002	 2.74190e-008
3036	 1.8968750000e+002	 2.29970e-008
3037	 1.8975000000e+002	 2.06165e-008
3038	 1.8981250000e+002	 2.88687e-008
3039	 1.8987500000e+002	 2.17494e-008
3040	 1.8993750000e+002	 2.57981e-008
3041	 1.9000000000e+002	 2.01232e-008
3042	 1.9006250000e+002	 1.87632e-008
3043	 1.9012500000e+002	 3.07448e-008
3044	 1.9018750000e+002	 1.92730e-008
3045	 1.9025000000e+002	 2.39590e-008
3046	 1.9031250000e+002	 2.31046e-008
3047	 1.9037500000e+002	 2.57080e-008
3048	 1.9043750000e+002	 2.59361e-008
3049	 1.9050000000e+002	 2.32170e-008
3050	 1.9056250000e+002	 2.42980e-008
3051	 1.9062500000e+002	 2.82464e-008
3052	 1.9068750000e+002	 3.08780e-008
3053	 1.9075000000e+002	 2.22260e-008
3054	 1.9081250000e+002	 2.52300e-008
3055	 1.9087500000e+002	 2.67942e-008
3056	 1.9093750000e+002	 2.36537e-008
3057	 1.9100000000e+002	 2.69627e-008
3058	 1.9106250000e+002	 2.31000e-008
3059	 1.9112500000e+002	 2.08978e-008
3060	 1.9118750000e+002	 2.60902e-008
3061	 1.9125000000e+002	 2.16931e-008
3062	 1.9131250000e+002	 2.39404e-008
3063	 1.9137500000e+002	 2.05860e-008
3064	 1.9143750000e+002	 1.85232e-008
3065	 1.9150000000e+002	 1.57682e-008
3066	 1.9156250000e+002	 2.22637e-008
3067	 1.9162500000e+002	 2.75549e-008
3068	 1.9168750000e+002	 1.80705e-008
3069	 1.9175000000e+002	 2.20401e-008
3070	 1.9181250000e+002	 1.65237e-008
3071	 1.9187500000e+002	 1.68016e-008
3072	 1.9193750000e+002	 1.93754e-008
3073	 1.9200000000e+002	 1.37785e-008
3074	 1.9206250000e+002	 2.39497e-008
3075	 1.9212500000e+002	 1.32786e-008
3076	 1.9218750000e+002	 1.74215e-008
3077	 1.9225000000e+002	 1.67085e-008
3078	 1.9231250000e+002	 1.85635e-008
3079	 1.9237500000e+002	 1.39456e-008
3080	 1.9243750000e+002	 1.38300e-008
3081	 1.9250000000e+002	 1.67965e-008
3082	 1.9256250000e+002	 1.13053e-008
3083	 1.9262500000e+002	 1.98897e-008
3084	 1.9268750000e+002	 1.71724e-008
3085	 1.9275000000e+002	 1.13373e-008
3086	 1.9281250000e+002	 1.40466e-008
3087	 1.9287500000e+002	 1.62627e-008
3088	 1.9293750000e+002	 1.10048e-008
3089	 1.9300000000e+002	 1.85954e-008
3090	 1.9306250000e+002	 1.78535e-008
3091	 1.9312500000e+002	 1.90191e-008
3092	 1.9318750000e+002	 1.46036e-008
3093	 1.9325000000e+002	 1.71036e-008
3094	 1.9331250000e+002	 1.87444e-008
3095	 1.9337500000e+002	 1.62789e-008
3096	 1.9343750000e+002	 2.08782e-008
3097	 1.9350000000e+002	 2.03100e-008
3098	 1.9356250000e+002	 1.63713e-008
3099	 1.9362500000e+002	 2.25146e-008
3100	 1.9368750000e+002	 1.64633e-008
3101	 1.9375000000e+002	 2.27503e-008
3102	 1.9381250000e+002	 1.48552e-008
3103	 1.9387500000e+002	 1.96563e-008
3104	 1.9393750000e+002	 1.87538e-008
3105	 1.9400000000e+002	 2.24660e-008
3106	 1.9406250000e+002	 2.09755e-008
3107	 1.9412500000e+002	 1.87558e-008
3108	 1.9418750000e+002	 1.69781e-008
3109	 1.9425000000e+002	 2.12482e-008
3110	 1.9431250000e+002	 2.62434e-008
3111	 1.9437500000e+002	 2.10532e-008
3112	 1.9443750000e+002	 2.29978e-008
3113	 1.9450000000e+002	 1.83726e-008
3114	 1.9456250000e+002	 2.15845e-008
3115	 1.9462500000e+002	 2.15040e-008
3116	 1.9468750000e+002	 2.69919e-008
3117	 1.9475000000e+002	 2.44067e-008
3118	 1.9481250000e+002	 1.84718e-008
3119	 1.9487500000e+002	 2.24729e-008
3120	 1.9493750000e+002	 2.31814e-008
3121	 1.9500000000e+002	 2.55519e-008
3122	 1.9506250000e+002	 2.47612e-008
3123	 1.9512500000e+002	 2.41467e-008
3124	 1.9518750000e+002	 2.69171e-008
3125	 1.9525000000e+002	 2.22114e-008
3126	 1.9531250000e+002	 2.44759e-008
3127	 1.9537500000e+002	 2.45121e-008
3128	 1.9543750000e+002	 2.82920e-008
3129	 1.9550000000e+002	 2.84499e-008
3130	 1.9556250000e+002	 2.53329e-008
3131	 1.9562500000e+002	 2.62317e-008
3132	 1.9568750000e+002	 2.19498e-008
3133	 1.9575000000e+002	 2.88954e-008
3134	 1.9581250000e+002	 2.32954e-008
3135	 1.9587500000e+002	 2.82700e-008
3136	 1.9593750000e+002	 2.47474e-008
3137	 1.9600000000e+002	 2.09693e-008
3138	 1.9606250000e+002	 2.91788e-008
3139	 1.9612500000e+002	 2.51786e-008
3140	 1.9618750000e+002	 2.30466e-008
3141	 1.9625000000e+002	 2.57571e-008
3142	 1.9631250000e+002	 2.83097e-008
3143	 1.9637500000e+002	 2.44863e-008
3144	 1.9643750000e+002	 2.41617e-008
3145	 1.9650000000e+002	 2.46434e-008
3146	 1.9656250000e+002	 1.87388e-008
3147	 1.9662500000e+002	 2.79749e-008
3148	 1.9668750000e+002	 2.23723e-008
3149	 1.9675000000e+002	 2.12855e-008
3150	 1.9681250000e+002	 2.33776e-008
3151	 1.9687500000e+002	 2.06409e-008
3152	 1.9693750000e+002	 2.43918e-008
3153	 1.9700000000e+002	 2.41852e-008
3154	 1.9706250000e+002	 2.61670e-008
3155	 1.9712500000e+002	 2.15260e-008
3156	 1.9718750000e+002	 2.28902e-008
3157	 1.9725000000e+002	 3.33471e-008
3158	 1.9731250000e+002	 2.31880e-008
3159	 1.9737500000e+002	 2.37812e-008
3160	 1.9743750000e+002	 2.05758e-008
3161	 1.9750000000e+002	 2.62560e-008
3162	 1.9756250000e+002	 2.31535e-008
3163	 1.9762500000e+002	 2.63596e-008
3164	 1.9768750000e+002	 2.41610e-008
3165	 1.9775000000e+002	 2.67195e-008
3166	 1.9781250000e+002	 2.49358e-008
3167	 1.9787500000e+002	 2.58561e-008
3168	 1.9793750000e+002	 2.48532e-008
3169	 1.9800000000e+002	 2.87973e-008
3170	 1.9806250000e+002	 4.15295e-008
3171	 1.9812500000e+002	 2.35977e-008
3172	 1.9818750000e+002	 2.96674e-008
3173	 1.9825000000e+002	 2.81320e-008
3174	 1.9831250000e+002	 3.21171e-008
3175	 1.9837500000e+002	 2.85676e-008
3176	 1.9843750000e+002	 3.67957e-008
3177	 1.9850000000e+002	 2.69622e-008
3178	 1.9856250000e+002	 2.36265e-008
3179	 1.9862500000e+002	 3.09403e-008
3180	 1.9868750000e+002	 3.37451e-008
3181	 1.9875000000e+002	 2.71798e-008
3182	 1.9881250000e+002	 3.50587e-008
3183	 1.9887500000e+002	 3.50015e-008
3184	 1.9893750000e+002	 2.49204e-008
3185	 1.9900000000e+002	 3.43880e-008
3186	 1.9906250000e+002	 2.72838e-008
3187	 1.9912500000e+002	 2.64688e-008
3188	 1.9918750000e+002	 2.86704e-008
3189	 1.9925000000e+002	 2.88777e-008
3190	 1.9931250000e+002	 2.87541e-008
3191	 1.9937500000e+002	 2.66323e-008
3192	 1.9943750000e+002	 2.75212e-008
3193	 1.9950000000e+002	 2.16101e-008
3194	 1.9956250000e+002	 3.00107e-008
3195	 1.9962500000e+002	 1.76709e-008
3196	 1.9968750000e+002	 2.46693e-008
3197	 1.9975000000e+002	 1.58821e-008
3198	 1.9981250000e+002	 2.20930e-008
3199	 1.9987500000e+002	 2.21182e-008
3200	 1.9993750000e+002	 1.61704e-008
3201	 2.0000000000e+002	 2.13287e-008
TagsBegin:	 	 
OverLoad:	 	False
AverageNumber: []	 	 1.00000e+000
OverLoadRatio: []	 	 1.19209e-007
TagsEnd:	 	 
TagScalesBegin:	 	 
TagScalesEnd:	 	 
