Header Size:	 78	 
Pulse Version:	 42	 
Decimal Symbol:	.	 
Date Format:	dd/MM/yyyy	 
Time Format:	HH:mm:ss:mmm	 
Data Type:	Real	 
Slice:	False	 
Z-Axis type:	Linear	 
Z-Axis size:	1	 
Z-Axis unit:	 	 
Z-Axis first value:	 0.0000000000e+000	 
Z-Axis delta:	 1.0000000000e+000	 
X-Axis type:	Linear	 
X-Axis size:	3201	 
X-Axis unit:	Hz	 
X-Axis first value:	 0.0000000000e+000	 
X-Axis delta:	 6.2500000000e-002	 
	 	 
AmplitudeUnit:	m/s²	 
Analyzer:	FFT_Spectrum_Averaging	 
AnalyzerName:	FFT	 
	 	 
	 	 
Bipolar:	False	 
CenterFrequency:	 1.0000000000e+002	 
	 	 
	 	 
	 	 
	 	 
	 	 
	 	 
	 	 
	 	 
Domain:	1	 
Function:	Autospectrum	 
	 	 
InputRange:	 9.7369860443e+003	 
	 	 
	 	 
MultiBufferName:	Input	 
NBW:	 1.5000000000e+000	 
	 	 
OverlapFailed:	False	 
Overrun:	False	 
Power:	True	 
PowerUnit:	(m/s²)²	 
	 	 
RecordLength:	 1.6000000000e+001	 
ReducedSize:	True	 
	 	 
	 	 
	 	 
	 	 
	 	 
SamplingRatio:	 2.5600000000e+000	 
Signal:	Signal 1	 
	 	 
SignalUnit:	m/s²	 
	 	 
	 	 
	 	 
Title:	Autospectrum(Signal 1) - Input	 
Title1:	Working : Input : Input : FFT	 
	 	 
	 	 
Weight:	0	 
ZoomOn:	False	 
	 	 
TemplateName:	Working	 
MeasurementName:	Input	 
MeasurementSlice:	False	 
	 	 
DeltaFrequency:	 6.2500000000e-002	 
	 	 
EnvelopeOn:	False	 
	 	 
	 	 
	 	 
Z-index:	 	1
Date:	 	01/01/2008
Time:	 	00:43:54:749
Relative time:	 	 0.00000e+000
Z-axis:	 	 0.0000000000e+000
1	 0.0000000000e+000	 1.50570e-005
2	 6.2500000000e-002	 4.77464e-006
3	 1.2500000000e-001	 8.17321e-006
4	 1.8750000000e-001	 1.98433e-005
5	 2.5000000000e-001	 1.41817e-005
6	 3.1250000000e-001	 8.93639e-007
7	 3.7500000000e-001	 5.88474e-006
8	 4.3750000000e-001	 8.17273e-006
9	 5.0000000000e-001	 3.54911e-006
10	 5.6250000000e-001	 3.12377e-006
11	 6.2500000000e-001	 1.45076e-005
12	 6.8750000000e-001	 3.16328e-005
13	 7.5000000000e-001	 8.74253e-006
14	 8.1250000000e-001	 1.70700e-005
15	 8.7500000000e-001	 1.86256e-006
16	 9.3750000000e-001	 9.96509e-007
17	 1.0000000000e+000	 6.18898e-006
18	 1.0625000000e+000	 3.15082e-006
19	 1.1250000000e+000	 2.67395e-007
20	 1.1875000000e+000	 5.57485e-006
21	 1.2500000000e+000	 3.08157e-007
22	 1.3125000000e+000	 4.31263e-006
23	 1.3750000000e+000	 9.26612e-007
24	 1.4375000000e+000	 1.60972e-006
25	 1.5000000000e+000	 1.55541e-006
26	 1.5625000000e+000	 4.32290e-006
27	 1.6250000000e+000	 3.72965e-006
28	 1.6875000000e+000	 5.76458e-006
29	 1.7500000000e+000	 8.85018e-008
30	 1.8125000000e+000	 2.16308e-006
31	 1.8750000000e+000	 8.17786e-007
32	 1.9375000000e+000	 3.74682e-007
33	 2.0000000000e+000	 4.99993e-006
34	 2.0625000000e+000	 1.01474e-006
35	 2.1250000000e+000	 1.07559e-006
36	 2.1875000000e+000	 5.01509e-006
37	 2.2500000000e+000	 9.01753e-007
38	 2.3125000000e+000	 5.23582e-006
39	 2.3750000000e+000	 2.51701e-006
40	 2.4375000000e+000	 3.53211e-006
41	 2.5000000000e+000	 1.85771e-006
42	 2.5625000000e+000	 6.31226e-006
43	 2.6250000000e+000	 6.43148e-006
44	 2.6875000000e+000	 3.78992e-006
45	 2.7500000000e+000	 5.54053e-006
46	 2.8125000000e+000	 7.60034e-006
47	 2.8750000000e+000	 5.96060e-006
48	 2.9375000000e+000	 6.80038e-006
49	 3.0000000000e+000	 9.90488e-006
50	 3.0625000000e+000	 6.87825e-006
51	 3.1250000000e+000	 1.11818e-005
52	 3.1875000000e+000	 9.44922e-006
53	 3.2500000000e+000	 1.18425e-005
54	 3.3125000000e+000	 1.22492e-005
55	 3.3750000000e+000	 1.30317e-005
56	 3.4375000000e+000	 1.47321e-005
57	 3.5000000000e+000	 1.25730e-005
58	 3.5625000000e+000	 1.81589e-005
59	 3.6250000000e+000	 1.61242e-005
60	 3.6875000000e+000	 2.08953e-005
61	 3.7500000000e+000	 1.87241e-005
62	 3.8125000000e+000	 2.46268e-005
63	 3.8750000000e+000	 1.95594e-005
64	 3.9375000000e+000	 2.54977e-005
65	 4.0000000000e+000	 2.72675e-005
66	 4.0625000000e+000	 2.82137e-005
67	 4.1250000000e+000	 3.01999e-005
68	 4.1875000000e+000	 2.99200e-005
69	 4.2500000000e+000	 3.36135e-005
70	 4.3125000000e+000	 3.80878e-005
71	 4.3750000000e+000	 3.88700e-005
72	 4.4375000000e+000	 4.13881e-005
73	 4.5000000000e+000	 4.93221e-005
74	 4.5625000000e+000	 5.03836e-005
75	 4.6250000000e+000	 5.88530e-005
76	 4.6875000000e+000	 5.74635e-005
77	 4.7500000000e+000	 7.01464e-005
78	 4.8125000000e+000	 7.02749e-005
79	 4.8750000000e+000	 7.69782e-005
80	 4.9375000000e+000	 8.55568e-005
81	 5.0000000000e+000	 9.33533e-005
82	 5.0625000000e+000	 9.27616e-005
83	 5.1250000000e+000	 9.42137e-005
84	 5.1875000000e+000	 1.07373e-004
85	 5.2500000000e+000	 1.40772e-004
86	 5.3125000000e+000	 1.80781e-004
87	 5.3750000000e+000	 1.84772e-004
88	 5.4375000000e+000	 2.12821e-004
89	 5.5000000000e+000	 2.43042e-004
90	 5.5625000000e+000	 2.65723e-004
91	 5.6250000000e+000	 2.82072e-004
92	 5.6875000000e+000	 3.02269e-004
93	 5.7500000000e+000	 3.32691e-004
94	 5.8125000000e+000	 3.93767e-004
95	 5.8750000000e+000	 4.90348e-004
96	 5.9375000000e+000	 5.67821e-004
97	 6.0000000000e+000	 6.53061e-004
98	 6.0625000000e+000	 7.11560e-004
99	 6.1250000000e+000	 8.46591e-004
100	 6.1875000000e+000	 9.38270e-004
101	 6.2500000000e+000	 1.08109e-003
102	 6.3125000000e+000	 1.20422e-003
103	 6.3750000000e+000	 1.46168e-003
104	 6.4375000000e+000	 1.57715e-003
105	 6.5000000000e+000	 1.88823e-003
106	 6.5625000000e+000	 2.14122e-003
107	 6.6250000000e+000	 2.44037e-003
108	 6.6875000000e+000	 2.82453e-003
109	 6.7500000000e+000	 3.42735e-003
110	 6.8125000000e+000	 3.82937e-003
111	 6.8750000000e+000	 4.92774e-003
112	 6.9375000000e+000	 5.92929e-003
113	 7.0000000000e+000	 8.22962e-003
114	 7.0625000000e+000	 1.02744e-002
115	 7.1250000000e+000	 1.53316e-002
116	 7.1875000000e+000	 1.94195e-002
117	 7.2500000000e+000	 2.98636e-002
118	 7.3125000000e+000	 4.37641e-002
119	 7.3750000000e+000	 4.42283e-002
120	 7.4375000000e+000	 1.52273e-002
121	 7.5000000000e+000	 3.64108e-003
122	 7.5625000000e+000	 8.47739e-004
123	 7.6250000000e+000	 1.28918e-004
124	 7.6875000000e+000	 2.48720e-004
125	 7.7500000000e+000	 2.87869e-004
126	 7.8125000000e+000	 2.69561e-004
127	 7.8750000000e+000	 1.94262e-004
128	 7.9375000000e+000	 2.40400e-004
129	 8.0000000000e+000	 2.30969e-004
130	 8.0625000000e+000	 2.14556e-004
131	 8.1250000000e+000	 1.38492e-004
132	 8.1875000000e+000	 2.30039e-004
133	 8.2500000000e+000	 1.18798e-004
134	 8.3125000000e+000	 1.53994e-004
135	 8.3750000000e+000	 1.18884e-004
136	 8.4375000000e+000	 8.51206e-005
137	 8.5000000000e+000	 7.97277e-005
138	 8.5625000000e+000	 5.98139e-005
139	 8.6250000000e+000	 3.90508e-005
140	 8.6875000000e+000	 2.01833e-005
141	 8.7500000000e+000	 2.03485e-005
142	 8.8125000000e+000	 1.41271e-005
143	 8.8750000000e+000	 1.90664e-005
144	 8.9375000000e+000	 2.74309e-005
145	 9.0000000000e+000	 1.55104e-005
146	 9.0625000000e+000	 9.75067e-006
147	 9.1250000000e+000	 3.25146e-006
148	 9.1875000000e+000	 7.53001e-006
149	 9.2500000000e+000	 2.15020e-006
150	 9.3125000000e+000	 6.91036e-006
151	 9.3750000000e+000	 8.69709e-006
152	 9.4375000000e+000	 9.83290e-006
153	 9.5000000000e+000	 1.01117e-005
154	 9.5625000000e+000	 8.94026e-006
155	 9.6250000000e+000	 8.23304e-006
156	 9.6875000000e+000	 1.21699e-005
157	 9.7500000000e+000	 8.84397e-006
158	 9.8125000000e+000	 9.03365e-006
159	 9.8750000000e+000	 1.02727e-005
160	 9.9375000000e+000	 7.92804e-006
161	 1.0000000000e+001	 6.91387e-006
162	 1.0062500000e+001	 8.13025e-006
163	 1.0125000000e+001	 5.98553e-006
164	 1.0187500000e+001	 3.86800e-006
165	 1.0250000000e+001	 3.84640e-006
166	 1.0312500000e+001	 1.07409e-006
167	 1.0375000000e+001	 1.01672e-006
168	 1.0437500000e+001	 1.82407e-006
169	 1.0500000000e+001	 4.15405e-006
170	 1.0562500000e+001	 4.20792e-006
171	 1.0625000000e+001	 2.83032e-006
172	 1.0687500000e+001	 1.45499e-006
173	 1.0750000000e+001	 3.03964e-006
174	 1.0812500000e+001	 2.93740e-006
175	 1.0875000000e+001	 2.91448e-006
176	 1.0937500000e+001	 1.61630e-006
177	 1.1000000000e+001	 2.62037e-006
178	 1.1062500000e+001	 2.34853e-006
179	 1.1125000000e+001	 1.92853e-006
180	 1.1187500000e+001	 1.77269e-006
181	 1.1250000000e+001	 2.64955e-006
182	 1.1312500000e+001	 1.76994e-006
183	 1.1375000000e+001	 2.28180e-006
184	 1.1437500000e+001	 8.98313e-007
185	 1.1500000000e+001	 1.96652e-006
186	 1.1562500000e+001	 1.43829e-006
187	 1.1625000000e+001	 1.85178e-006
188	 1.1687500000e+001	 2.46547e-006
189	 1.1750000000e+001	 2.30079e-006
190	 1.1812500000e+001	 1.85922e-006
191	 1.1875000000e+001	 4.41520e-006
192	 1.1937500000e+001	 2.33314e-006
193	 1.2000000000e+001	 5.20853e-006
194	 1.2062500000e+001	 5.45391e-006
195	 1.2125000000e+001	 6.41221e-006
196	 1.2187500000e+001	 7.30523e-006
197	 1.2250000000e+001	 6.96155e-006
198	 1.2312500000e+001	 8.69399e-006
199	 1.2375000000e+001	 1.23197e-005
200	 1.2437500000e+001	 1.28311e-005
201	 1.2500000000e+001	 1.43598e-005
202	 1.2562500000e+001	 1.28877e-005
203	 1.2625000000e+001	 1.59684e-005
204	 1.2687500000e+001	 1.82800e-005
205	 1.2750000000e+001	 1.67155e-005
206	 1.2812500000e+001	 1.94836e-005
207	 1.2875000000e+001	 2.33290e-005
208	 1.2937500000e+001	 2.12980e-005
209	 1.3000000000e+001	 2.47032e-005
210	 1.3062500000e+001	 2.45248e-005
211	 1.3125000000e+001	 2.72173e-005
212	 1.3187500000e+001	 2.98537e-005
213	 1.3250000000e+001	 2.90986e-005
214	 1.3312500000e+001	 3.03069e-005
215	 1.3375000000e+001	 3.06022e-005
216	 1.3437500000e+001	 3.24089e-005
217	 1.3500000000e+001	 3.30132e-005
218	 1.3562500000e+001	 3.24824e-005
219	 1.3625000000e+001	 3.47828e-005
220	 1.3687500000e+001	 3.44310e-005
221	 1.3750000000e+001	 3.28136e-005
222	 1.3812500000e+001	 3.34272e-005
223	 1.3875000000e+001	 3.40658e-005
224	 1.3937500000e+001	 3.02088e-005
225	 1.4000000000e+001	 3.00850e-005
226	 1.4062500000e+001	 2.81749e-005
227	 1.4125000000e+001	 2.44069e-005
228	 1.4187500000e+001	 2.09261e-005
229	 1.4250000000e+001	 1.79097e-005
230	 1.4312500000e+001	 1.24933e-005
231	 1.4375000000e+001	 7.27056e-006
232	 1.4437500000e+001	 4.27761e-006
233	 1.4500000000e+001	 2.92970e-006
234	 1.4562500000e+001	 5.54526e-006
235	 1.4625000000e+001	 1.10378e-005
236	 1.4687500000e+001	 1.81677e-005
237	 1.4750000000e+001	 1.99481e-005
238	 1.4812500000e+001	 1.67513e-005
239	 1.4875000000e+001	 1.35562e-005
240	 1.4937500000e+001	 1.39073e-005
241	 1.5000000000e+001	 1.36288e-005
242	 1.5062500000e+001	 1.42701e-005
243	 1.5125000000e+001	 1.45923e-005
244	 1.5187500000e+001	 1.46902e-005
245	 1.5250000000e+001	 1.52981e-005
246	 1.5312500000e+001	 1.52616e-005
247	 1.5375000000e+001	 1.54350e-005
248	 1.5437500000e+001	 1.64482e-005
249	 1.5500000000e+001	 1.55262e-005
250	 1.5562500000e+001	 1.55098e-005
251	 1.5625000000e+001	 1.56640e-005
252	 1.5687500000e+001	 1.55859e-005
253	 1.5750000000e+001	 1.54211e-005
254	 1.5812500000e+001	 1.35490e-005
255	 1.5875000000e+001	 1.44612e-005
256	 1.5937500000e+001	 1.38955e-005
257	 1.6000000000e+001	 1.33886e-005
258	 1.6062500000e+001	 1.20424e-005
259	 1.6125000000e+001	 1.04422e-005
260	 1.6187500000e+001	 1.00612e-005
261	 1.6250000000e+001	 8.97758e-006
262	 1.6312500000e+001	 9.05762e-006
263	 1.6375000000e+001	 7.73566e-006
264	 1.6437500000e+001	 7.74730e-006
265	 1.6500000000e+001	 6.99466e-006
266	 1.6562500000e+001	 6.54582e-006
267	 1.6625000000e+001	 5.46921e-006
268	 1.6687500000e+001	 6.54382e-006
269	 1.6750000000e+001	 5.58069e-006
270	 1.6812500000e+001	 5.20146e-006
271	 1.6875000000e+001	 5.52115e-006
272	 1.6937500000e+001	 5.15758e-006
273	 1.7000000000e+001	 5.24324e-006
274	 1.7062500000e+001	 5.19070e-006
275	 1.7125000000e+001	 5.15378e-006
276	 1.7187500000e+001	 5.09610e-006
277	 1.7250000000e+001	 5.49201e-006
278	 1.7312500000e+001	 5.26200e-006
279	 1.7375000000e+001	 5.33188e-006
280	 1.7437500000e+001	 5.39773e-006
281	 1.7500000000e+001	 5.44389e-006
282	 1.7562500000e+001	 5.91342e-006
283	 1.7625000000e+001	 5.18994e-006
284	 1.7687500000e+001	 5.22601e-006
285	 1.7750000000e+001	 5.27669e-006
286	 1.7812500000e+001	 4.76355e-006
287	 1.7875000000e+001	 4.32172e-006
288	 1.7937500000e+001	 4.49301e-006
289	 1.8000000000e+001	 4.64109e-006
290	 1.8062500000e+001	 4.12371e-006
291	 1.8125000000e+001	 3.76785e-006
292	 1.8187500000e+001	 4.28885e-006
293	 1.8250000000e+001	 3.71044e-006
294	 1.8312500000e+001	 3.75159e-006
295	 1.8375000000e+001	 3.69345e-006
296	 1.8437500000e+001	 3.74796e-006
297	 1.8500000000e+001	 4.04520e-006
298	 1.8562500000e+001	 3.39952e-006
299	 1.8625000000e+001	 3.43893e-006
300	 1.8687500000e+001	 3.94723e-006
301	 1.8750000000e+001	 3.66982e-006
302	 1.8812500000e+001	 3.59737e-006
303	 1.8875000000e+001	 3.36446e-006
304	 1.8937500000e+001	 3.55788e-006
305	 1.9000000000e+001	 3.65906e-006
306	 1.9062500000e+001	 3.22328e-006
307	 1.9125000000e+001	 3.62180e-006
308	 1.9187500000e+001	 3.35617e-006
309	 1.9250000000e+001	 3.47106e-006
310	 1.9312500000e+001	 3.53489e-006
311	 1.9375000000e+001	 3.60405e-006
312	 1.9437500000e+001	 3.72239e-006
313	 1.9500000000e+001	 3.41846e-006
314	 1.9562500000e+001	 3.52760e-006
315	 1.9625000000e+001	 3.46464e-006
316	 1.9687500000e+001	 4.22566e-006
317	 1.9750000000e+001	 4.05502e-006
318	 1.9812500000e+001	 3.69330e-006
319	 1.9875000000e+001	 3.98376e-006
320	 1.9937500000e+001	 3.89666e-006
321	 2.0000000000e+001	 4.03981e-006
322	 2.0062500000e+001	 4.33859e-006
323	 2.0125000000e+001	 4.05888e-006
324	 2.0187500000e+001	 4.24171e-006
325	 2.0250000000e+001	 4.18253e-006
326	 2.0312500000e+001	 3.87339e-006
327	 2.0375000000e+001	 4.00249e-006
328	 2.0437500000e+001	 3.63946e-006
329	 2.0500000000e+001	 3.33021e-006
330	 2.0562500000e+001	 3.09028e-006
331	 2.0625000000e+001	 3.19668e-006
332	 2.0687500000e+001	 2.47244e-006
333	 2.0750000000e+001	 2.00119e-006
334	 2.0812500000e+001	 2.12387e-006
335	 2.0875000000e+001	 1.59367e-006
336	 2.0937500000e+001	 1.20137e-006
337	 2.1000000000e+001	 9.16475e-007
338	 2.1062500000e+001	 7.40250e-007
339	 2.1125000000e+001	 4.81749e-007
340	 2.1187500000e+001	 4.60181e-007
341	 2.1250000000e+001	 3.25944e-007
342	 2.1312500000e+001	 2.26140e-007
343	 2.1375000000e+001	 3.36648e-007
344	 2.1437500000e+001	 3.82559e-007
345	 2.1500000000e+001	 4.33067e-007
346	 2.1562500000e+001	 4.77682e-007
347	 2.1625000000e+001	 7.73163e-007
348	 2.1687500000e+001	 1.25806e-006
349	 2.1750000000e+001	 1.22047e-006
350	 2.1812500000e+001	 1.05765e-006
351	 2.1875000000e+001	 1.07125e-006
352	 2.1937500000e+001	 1.19855e-006
353	 2.2000000000e+001	 1.39384e-006
354	 2.2062500000e+001	 1.80540e-006
355	 2.2125000000e+001	 2.37654e-006
356	 2.2187500000e+001	 2.75300e-006
357	 2.2250000000e+001	 2.38440e-006
358	 2.2312500000e+001	 2.73754e-006
359	 2.2375000000e+001	 2.56351e-006
360	 2.2437500000e+001	 2.80431e-006
361	 2.2500000000e+001	 2.89521e-006
362	 2.2562500000e+001	 2.31377e-006
363	 2.2625000000e+001	 2.45463e-006
364	 2.2687500000e+001	 2.71738e-006
365	 2.2750000000e+001	 2.27986e-006
366	 2.2812500000e+001	 2.19446e-006
367	 2.2875000000e+001	 1.95509e-006
368	 2.2937500000e+001	 1.87489e-006
369	 2.3000000000e+001	 1.93998e-006
370	 2.3062500000e+001	 1.55444e-006
371	 2.3125000000e+001	 1.66959e-006
372	 2.3187500000e+001	 1.84966e-006
373	 2.3250000000e+001	 1.49815e-006
374	 2.3312500000e+001	 1.41979e-006
375	 2.3375000000e+001	 1.66609e-006
376	 2.3437500000e+001	 1.47610e-006
377	 2.3500000000e+001	 1.46280e-006
378	 2.3562500000e+001	 1.63999e-006
379	 2.3625000000e+001	 1.66379e-006
380	 2.3687500000e+001	 1.38060e-006
381	 2.3750000000e+001	 1.40195e-006
382	 2.3812500000e+001	 1.67988e-006
383	 2.3875000000e+001	 1.48424e-006
384	 2.3937500000e+001	 1.47648e-006
385	 2.4000000000e+001	 1.81197e-006
386	 2.4062500000e+001	 1.32227e-006
387	 2.4125000000e+001	 1.40264e-006
388	 2.4187500000e+001	 1.72086e-006
389	 2.4250000000e+001	 1.13964e-006
390	 2.4312500000e+001	 1.54303e-006
391	 2.4375000000e+001	 1.50377e-006
392	 2.4437500000e+001	 1.07267e-006
393	 2.4500000000e+001	 1.27990e-006
394	 2.4562500000e+001	 1.30326e-006
395	 2.4625000000e+001	 1.18735e-006
396	 2.4687500000e+001	 8.92351e-007
397	 2.4750000000e+001	 1.22593e-006
398	 2.4812500000e+001	 1.36431e-006
399	 2.4875000000e+001	 6.53568e-007
400	 2.4937500000e+001	 1.25350e-006
401	 2.5000000000e+001	 1.37450e-006
402	 2.5062500000e+001	 5.98532e-007
403	 2.5125000000e+001	 1.07215e-006
404	 2.5187500000e+001	 1.35251e-006
405	 2.5250000000e+001	 8.29440e-007
406	 2.5312500000e+001	 9.32087e-007
407	 2.5375000000e+001	 1.19593e-006
408	 2.5437500000e+001	 1.06971e-006
409	 2.5500000000e+001	 8.57415e-007
410	 2.5562500000e+001	 1.07697e-006
411	 2.5625000000e+001	 1.08639e-006
412	 2.5687500000e+001	 8.95668e-007
413	 2.5750000000e+001	 1.08560e-006
414	 2.5812500000e+001	 1.25713e-006
415	 2.5875000000e+001	 8.33067e-007
416	 2.5937500000e+001	 1.17337e-006
417	 2.6000000000e+001	 1.10792e-006
418	 2.6062500000e+001	 1.01843e-006
419	 2.6125000000e+001	 1.24736e-006
420	 2.6187500000e+001	 1.04625e-006
421	 2.6250000000e+001	 1.24274e-006
422	 2.6312500000e+001	 1.20582e-006
423	 2.6375000000e+001	 1.12271e-006
424	 2.6437500000e+001	 1.30581e-006
425	 2.6500000000e+001	 1.37578e-006
426	 2.6562500000e+001	 1.22907e-006
427	 2.6625000000e+001	 1.41043e-006
428	 2.6687500000e+001	 1.16914e-006
429	 2.6750000000e+001	 1.63830e-006
430	 2.6812500000e+001	 1.46986e-006
431	 2.6875000000e+001	 1.40740e-006
432	 2.6937500000e+001	 1.52258e-006
433	 2.7000000000e+001	 1.63051e-006
434	 2.7062500000e+001	 1.41390e-006
435	 2.7125000000e+001	 1.40902e-006
436	 2.7187500000e+001	 1.27850e-006
437	 2.7250000000e+001	 1.63335e-006
438	 2.7312500000e+001	 1.32624e-006
439	 2.7375000000e+001	 1.27400e-006
440	 2.7437500000e+001	 1.40543e-006
441	 2.7500000000e+001	 1.03316e-006
442	 2.7562500000e+001	 1.15673e-006
443	 2.7625000000e+001	 1.24616e-006
444	 2.7687500000e+001	 9.50702e-007
445	 2.7750000000e+001	 9.44972e-007
446	 2.7812500000e+001	 9.15962e-007
447	 2.7875000000e+001	 8.27724e-007
448	 2.7937500000e+001	 8.35252e-007
449	 2.8000000000e+001	 7.79910e-007
450	 2.8062500000e+001	 7.65312e-007
451	 2.8125000000e+001	 7.59080e-007
452	 2.8187500000e+001	 7.19135e-007
453	 2.8250000000e+001	 7.62197e-007
454	 2.8312500000e+001	 6.68123e-007
455	 2.8375000000e+001	 7.51105e-007
456	 2.8437500000e+001	 8.11048e-007
457	 2.8500000000e+001	 7.27210e-007
458	 2.8562500000e+001	 9.33243e-007
459	 2.8625000000e+001	 8.04035e-007
460	 2.8687500000e+001	 8.93703e-007
461	 2.8750000000e+001	 1.06702e-006
462	 2.8812500000e+001	 9.05333e-007
463	 2.8875000000e+001	 8.31887e-007
464	 2.8937500000e+001	 1.20326e-006
465	 2.9000000000e+001	 1.03632e-006
466	 2.9062500000e+001	 8.52172e-007
467	 2.9125000000e+001	 9.31074e-007
468	 2.9187500000e+001	 1.05060e-006
469	 2.9250000000e+001	 9.34844e-007
470	 2.9312500000e+001	 9.02167e-007
471	 2.9375000000e+001	 1.01618e-006
472	 2.9437500000e+001	 7.96997e-007
473	 2.9500000000e+001	 9.66448e-007
474	 2.9562500000e+001	 1.01681e-006
475	 2.9625000000e+001	 7.70854e-007
476	 2.9687500000e+001	 6.82368e-007
477	 2.9750000000e+001	 9.00913e-007
478	 2.9812500000e+001	 7.72706e-007
479	 2.9875000000e+001	 7.86190e-007
480	 2.9937500000e+001	 7.87914e-007
481	 3.0000000000e+001	 6.76420e-007
482	 3.0062500000e+001	 7.79347e-007
483	 3.0125000000e+001	 8.03508e-007
484	 3.0187500000e+001	 8.01896e-007
485	 3.0250000000e+001	 6.88801e-007
486	 3.0312500000e+001	 7.91449e-007
487	 3.0375000000e+001	 6.77478e-007
488	 3.0437500000e+001	 8.27993e-007
489	 3.0500000000e+001	 8.23327e-007
490	 3.0562500000e+001	 7.40182e-007
491	 3.0625000000e+001	 8.43076e-007
492	 3.0687500000e+001	 7.83422e-007
493	 3.0750000000e+001	 7.40995e-007
494	 3.0812500000e+001	 8.00440e-007
495	 3.0875000000e+001	 7.35091e-007
496	 3.0937500000e+001	 8.23418e-007
497	 3.1000000000e+001	 8.08311e-007
498	 3.1062500000e+001	 8.29591e-007
499	 3.1125000000e+001	 7.29671e-007
500	 3.1187500000e+001	 7.61293e-007
501	 3.1250000000e+001	 1.00760e-006
502	 3.1312500000e+001	 7.18976e-007
503	 3.1375000000e+001	 7.73316e-007
504	 3.1437500000e+001	 8.27706e-007
505	 3.1500000000e+001	 8.19074e-007
506	 3.1562500000e+001	 7.03567e-007
507	 3.1625000000e+001	 8.06519e-007
508	 3.1687500000e+001	 8.84525e-007
509	 3.1750000000e+001	 7.34548e-007
510	 3.1812500000e+001	 7.84201e-007
511	 3.1875000000e+001	 9.37345e-007
512	 3.1937500000e+001	 7.60105e-007
513	 3.2000000000e+001	 7.94266e-007
514	 3.2062500000e+001	 7.77466e-007
515	 3.2125000000e+001	 8.50883e-007
516	 3.2187500000e+001	 7.72998e-007
517	 3.2250000000e+001	 8.95036e-007
518	 3.2312500000e+001	 8.43766e-007
519	 3.2375000000e+001	 7.34143e-007
520	 3.2437500000e+001	 8.08110e-007
521	 3.2500000000e+001	 8.39135e-007
522	 3.2562500000e+001	 8.12649e-007
523	 3.2625000000e+001	 8.63406e-007
524	 3.2687500000e+001	 6.96115e-007
525	 3.2750000000e+001	 9.25321e-007
526	 3.2812500000e+001	 7.92896e-007
527	 3.2875000000e+001	 7.91843e-007
528	 3.2937500000e+001	 8.97375e-007
529	 3.3000000000e+001	 7.27340e-007
530	 3.3062500000e+001	 8.03751e-007
531	 3.3125000000e+001	 8.38857e-007
532	 3.3187500000e+001	 7.40009e-007
533	 3.3250000000e+001	 8.68591e-007
534	 3.3312500000e+001	 8.61585e-007
535	 3.3375000000e+001	 7.03745e-007
536	 3.3437500000e+001	 7.87279e-007
537	 3.3500000000e+001	 8.08733e-007
538	 3.3562500000e+001	 7.17222e-007
539	 3.3625000000e+001	 6.76730e-007
540	 3.3687500000e+001	 8.00040e-007
541	 3.3750000000e+001	 7.18826e-007
542	 3.3812500000e+001	 7.53428e-007
543	 3.3875000000e+001	 7.30381e-007
544	 3.3937500000e+001	 6.52368e-007
545	 3.4000000000e+001	 6.61166e-007
546	 3.4062500000e+001	 6.73067e-007
547	 3.4125000000e+001	 6.79495e-007
548	 3.4187500000e+001	 6.65010e-007
549	 3.4250000000e+001	 6.63458e-007
550	 3.4312500000e+001	 6.66889e-007
551	 3.4375000000e+001	 5.60960e-007
552	 3.4437500000e+001	 6.46701e-007
553	 3.4500000000e+001	 6.95819e-007
554	 3.4562500000e+001	 5.54354e-007
555	 3.4625000000e+001	 6.36451e-007
556	 3.4687500000e+001	 6.95207e-007
557	 3.4750000000e+001	 6.11116e-007
558	 3.4812500000e+001	 5.72305e-007
559	 3.4875000000e+001	 6.96602e-007
560	 3.4937500000e+001	 6.25284e-007
561	 3.5000000000e+001	 6.79405e-007
562	 3.5062500000e+001	 6.99014e-007
563	 3.5125000000e+001	 5.68500e-007
564	 3.5187500000e+001	 7.48891e-007
565	 3.5250000000e+001	 7.43926e-007
566	 3.5312500000e+001	 5.74363e-007
567	 3.5375000000e+001	 6.37280e-007
568	 3.5437500000e+001	 7.20678e-007
569	 3.5500000000e+001	 6.28811e-007
570	 3.5562500000e+001	 7.01278e-007
571	 3.5625000000e+001	 6.63497e-007
572	 3.5687500000e+001	 5.82757e-007
573	 3.5750000000e+001	 6.24475e-007
574	 3.5812500000e+001	 7.39684e-007
575	 3.5875000000e+001	 5.16104e-007
576	 3.5937500000e+001	 6.22569e-007
577	 3.6000000000e+001	 6.80982e-007
578	 3.6062500000e+001	 5.50179e-007
579	 3.6125000000e+001	 6.48173e-007
580	 3.6187500000e+001	 7.42791e-007
581	 3.6250000000e+001	 6.70636e-007
582	 3.6312500000e+001	 6.70355e-007
583	 3.6375000000e+001	 7.06905e-007
584	 3.6437500000e+001	 6.39835e-007
585	 3.6500000000e+001	 6.45122e-007
586	 3.6562500000e+001	 7.19570e-007
587	 3.6625000000e+001	 5.12855e-007
588	 3.6687500000e+001	 6.84590e-007
589	 3.6750000000e+001	 7.60139e-007
590	 3.6812500000e+001	 6.49651e-007
591	 3.6875000000e+001	 6.18161e-007
592	 3.6937500000e+001	 7.34754e-007
593	 3.7000000000e+001	 6.58405e-007
594	 3.7062500000e+001	 6.71797e-007
595	 3.7125000000e+001	 7.65711e-007
596	 3.7187500000e+001	 6.77592e-007
597	 3.7250000000e+001	 6.00382e-007
598	 3.7312500000e+001	 7.28887e-007
599	 3.7375000000e+001	 6.89117e-007
600	 3.7437500000e+001	 5.83462e-007
601	 3.7500000000e+001	 7.38405e-007
602	 3.7562500000e+001	 6.46862e-007
603	 3.7625000000e+001	 5.94768e-007
604	 3.7687500000e+001	 6.69434e-007
605	 3.7750000000e+001	 6.99583e-007
606	 3.7812500000e+001	 5.00230e-007
607	 3.7875000000e+001	 6.21981e-007
608	 3.7937500000e+001	 6.48331e-007
609	 3.8000000000e+001	 5.90558e-007
610	 3.8062500000e+001	 5.98738e-007
611	 3.8125000000e+001	 5.95936e-007
612	 3.8187500000e+001	 5.90247e-007
613	 3.8250000000e+001	 5.65454e-007
614	 3.8312500000e+001	 6.28753e-007
615	 3.8375000000e+001	 4.92844e-007
616	 3.8437500000e+001	 6.01220e-007
617	 3.8500000000e+001	 6.01629e-007
618	 3.8562500000e+001	 4.88511e-007
619	 3.8625000000e+001	 5.41230e-007
620	 3.8687500000e+001	 6.15397e-007
621	 3.8750000000e+001	 5.93990e-007
622	 3.8812500000e+001	 4.77818e-007
623	 3.8875000000e+001	 6.34117e-007
624	 3.8937500000e+001	 5.40490e-007
625	 3.9000000000e+001	 5.60002e-007
626	 3.9062500000e+001	 5.65929e-007
627	 3.9125000000e+001	 5.27676e-007
628	 3.9187500000e+001	 5.46804e-007
629	 3.9250000000e+001	 5.35116e-007
630	 3.9312500000e+001	 5.35560e-007
631	 3.9375000000e+001	 5.01826e-007
632	 3.9437500000e+001	 4.78101e-007
633	 3.9500000000e+001	 5.64732e-007
634	 3.9562500000e+001	 4.55931e-007
635	 3.9625000000e+001	 4.80544e-007
636	 3.9687500000e+001	 5.41420e-007
637	 3.9750000000e+001	 4.67443e-007
638	 3.9812500000e+001	 4.92557e-007
639	 3.9875000000e+001	 4.80990e-007
640	 3.9937500000e+001	 4.38911e-007
641	 4.0000000000e+001	 4.76210e-007
642	 4.0062500000e+001	 4.22216e-007
643	 4.0125000000e+001	 4.89108e-007
644	 4.0187500000e+001	 4.67673e-007
645	 4.0250000000e+001	 4.44539e-007
646	 4.0312500000e+001	 4.10554e-007
647	 4.0375000000e+001	 4.15622e-007
648	 4.0437500000e+001	 4.48338e-007
649	 4.0500000000e+001	 4.01968e-007
650	 4.0562500000e+001	 4.38166e-007
651	 4.0625000000e+001	 3.64375e-007
652	 4.0687500000e+001	 3.91886e-007
653	 4.0750000000e+001	 5.23231e-007
654	 4.0812500000e+001	 4.11231e-007
655	 4.0875000000e+001	 3.63242e-007
656	 4.0937500000e+001	 4.66896e-007
657	 4.1000000000e+001	 4.62232e-007
658	 4.1062500000e+001	 4.33602e-007
659	 4.1125000000e+001	 3.36492e-007
660	 4.1187500000e+001	 5.57796e-007
661	 4.1250000000e+001	 4.43704e-007
662	 4.1312500000e+001	 4.72008e-007
663	 4.1375000000e+001	 4.96187e-007
664	 4.1437500000e+001	 4.63361e-007
665	 4.1500000000e+001	 4.82177e-007
666	 4.1562500000e+001	 4.45229e-007
667	 4.1625000000e+001	 4.63649e-007
668	 4.1687500000e+001	 4.75664e-007
669	 4.1750000000e+001	 5.49558e-007
670	 4.1812500000e+001	 4.87455e-007
671	 4.1875000000e+001	 4.58645e-007
672	 4.1937500000e+001	 4.80701e-007
673	 4.2000000000e+001	 4.48544e-007
674	 4.2062500000e+001	 4.35446e-007
675	 4.2125000000e+001	 4.70610e-007
676	 4.2187500000e+001	 4.31567e-007
677	 4.2250000000e+001	 3.60736e-007
678	 4.2312500000e+001	 4.42370e-007
679	 4.2375000000e+001	 4.02941e-007
680	 4.2437500000e+001	 3.52850e-007
681	 4.2500000000e+001	 3.57034e-007
682	 4.2562500000e+001	 4.05952e-007
683	 4.2625000000e+001	 3.60128e-007
684	 4.2687500000e+001	 3.27006e-007
685	 4.2750000000e+001	 3.04807e-007
686	 4.2812500000e+001	 3.88926e-007
687	 4.2875000000e+001	 3.42117e-007
688	 4.2937500000e+001	 3.20030e-007
689	 4.3000000000e+001	 3.29145e-007
690	 4.3062500000e+001	 3.13350e-007
691	 4.3125000000e+001	 3.45489e-007
692	 4.3187500000e+001	 3.65700e-007
693	 4.3250000000e+001	 2.99460e-007
694	 4.3312500000e+001	 3.95977e-007
695	 4.3375000000e+001	 3.49131e-007
696	 4.3437500000e+001	 3.49128e-007
697	 4.3500000000e+001	 4.19846e-007
698	 4.3562500000e+001	 3.52864e-007
699	 4.3625000000e+001	 4.21407e-007
700	 4.3687500000e+001	 3.41127e-007
701	 4.3750000000e+001	 3.83242e-007
702	 4.3812500000e+001	 4.14271e-007
703	 4.3875000000e+001	 3.92817e-007
704	 4.3937500000e+001	 3.96928e-007
705	 4.4000000000e+001	 4.02310e-007
706	 4.4062500000e+001	 3.51652e-007
707	 4.4125000000e+001	 3.67581e-007
708	 4.4187500000e+001	 3.92733e-007
709	 4.4250000000e+001	 3.37181e-007
710	 4.4312500000e+001	 2.99924e-007
711	 4.4375000000e+001	 3.55231e-007
712	 4.4437500000e+001	 4.02495e-007
713	 4.4500000000e+001	 3.05522e-007
714	 4.4562500000e+001	 3.66665e-007
715	 4.4625000000e+001	 3.20184e-007
716	 4.4687500000e+001	 3.33038e-007
717	 4.4750000000e+001	 3.53321e-007
718	 4.4812500000e+001	 3.16664e-007
719	 4.4875000000e+001	 3.36688e-007
720	 4.4937500000e+001	 3.79383e-007
721	 4.5000000000e+001	 3.52225e-007
722	 4.5062500000e+001	 2.70779e-007
723	 4.5125000000e+001	 4.04120e-007
724	 4.5187500000e+001	 2.96028e-007
725	 4.5250000000e+001	 3.72365e-007
726	 4.5312500000e+001	 3.04128e-007
727	 4.5375000000e+001	 3.90342e-007
728	 4.5437500000e+001	 3.01726e-007
729	 4.5500000000e+001	 3.36359e-007
730	 4.5562500000e+001	 3.36618e-007
731	 4.5625000000e+001	 3.35562e-007
732	 4.5687500000e+001	 2.97030e-007
733	 4.5750000000e+001	 3.60634e-007
734	 4.5812500000e+001	 3.34749e-007
735	 4.5875000000e+001	 2.66373e-007
736	 4.5937500000e+001	 3.58043e-007
737	 4.6000000000e+001	 3.02743e-007
738	 4.6062500000e+001	 2.91314e-007
739	 4.6125000000e+001	 3.25885e-007
740	 4.6187500000e+001	 3.20078e-007
741	 4.6250000000e+001	 2.48884e-007
742	 4.6312500000e+001	 3.11480e-007
743	 4.6375000000e+001	 2.94066e-007
744	 4.6437500000e+001	 2.74300e-007
745	 4.6500000000e+001	 3.07273e-007
746	 4.6562500000e+001	 3.28467e-007
747	 4.6625000000e+001	 2.59279e-007
748	 4.6687500000e+001	 2.95884e-007
749	 4.6750000000e+001	 3.18500e-007
750	 4.6812500000e+001	 2.78385e-007
751	 4.6875000000e+001	 2.53078e-007
752	 4.6937500000e+001	 2.57259e-007
753	 4.7000000000e+001	 3.15147e-007
754	 4.7062500000e+001	 2.66965e-007
755	 4.7125000000e+001	 2.75882e-007
756	 4.7187500000e+001	 3.04041e-007
757	 4.7250000000e+001	 2.97688e-007
758	 4.7312500000e+001	 2.91966e-007
759	 4.7375000000e+001	 2.57371e-007
760	 4.7437500000e+001	 2.74860e-007
761	 4.7500000000e+001	 3.15744e-007
762	 4.7562500000e+001	 2.83094e-007
763	 4.7625000000e+001	 2.84897e-007
764	 4.7687500000e+001	 3.05386e-007
765	 4.7750000000e+001	 3.38233e-007
766	 4.7812500000e+001	 2.99153e-007
767	 4.7875000000e+001	 3.23843e-007
768	 4.7937500000e+001	 3.48890e-007
769	 4.8000000000e+001	 2.65931e-007
770	 4.8062500000e+001	 3.24820e-007
771	 4.8125000000e+001	 3.59181e-007
772	 4.8187500000e+001	 3.41998e-007
773	 4.8250000000e+001	 3.07272e-007
774	 4.8312500000e+001	 3.86040e-007
775	 4.8375000000e+001	 3.29124e-007
776	 4.8437500000e+001	 2.98351e-007
777	 4.8500000000e+001	 3.23035e-007
778	 4.8562500000e+001	 3.30570e-007
779	 4.8625000000e+001	 3.28602e-007
780	 4.8687500000e+001	 3.04414e-007
781	 4.8750000000e+001	 3.40398e-007
782	 4.8812500000e+001	 3.38748e-007
783	 4.8875000000e+001	 2.89469e-007
784	 4.8937500000e+001	 2.70132e-007
785	 4.9000000000e+001	 2.92745e-007
786	 4.9062500000e+001	 3.44422e-007
787	 4.9125000000e+001	 3.40243e-007
788	 4.9187500000e+001	 2.05778e-007
789	 4.9250000000e+001	 3.06901e-007
790	 4.9312500000e+001	 3.48343e-007
791	 4.9375000000e+001	 1.97485e-007
792	 4.9437500000e+001	 2.84350e-007
793	 4.9500000000e+001	 2.81786e-007
794	 4.9562500000e+001	 2.50064e-007
795	 4.9625000000e+001	 2.06944e-007
796	 4.9687500000e+001	 3.10442e-007
797	 4.9750000000e+001	 2.86430e-007
798	 4.9812500000e+001	 1.88051e-007
799	 4.9875000000e+001	 3.59898e-007
800	 4.9937500000e+001	 3.81348e-007
801	 5.0000000000e+001	 1.23684e-007
802	 5.0062500000e+001	 3.31183e-007
803	 5.0125000000e+001	 4.07910e-007
804	 5.0187500000e+001	 2.03659e-007
805	 5.0250000000e+001	 3.06763e-007
806	 5.0312500000e+001	 2.95242e-007
807	 5.0375000000e+001	 2.99381e-007
808	 5.0437500000e+001	 2.33561e-007
809	 5.0500000000e+001	 3.21152e-007
810	 5.0562500000e+001	 2.72321e-007
811	 5.0625000000e+001	 2.33468e-007
812	 5.0687500000e+001	 3.00046e-007
813	 5.0750000000e+001	 3.73336e-007
814	 5.0812500000e+001	 2.39294e-007
815	 5.0875000000e+001	 2.97828e-007
816	 5.0937500000e+001	 3.22452e-007
817	 5.1000000000e+001	 2.19143e-007
818	 5.1062500000e+001	 3.10273e-007
819	 5.1125000000e+001	 2.45848e-007
820	 5.1187500000e+001	 2.40910e-007
821	 5.1250000000e+001	 2.72619e-007
822	 5.1312500000e+001	 2.87512e-007
823	 5.1375000000e+001	 2.11732e-007
824	 5.1437500000e+001	 2.63416e-007
825	 5.1500000000e+001	 3.01954e-007
826	 5.1562500000e+001	 2.61301e-007
827	 5.1625000000e+001	 2.24142e-007
828	 5.1687500000e+001	 2.97963e-007
829	 5.1750000000e+001	 2.55673e-007
830	 5.1812500000e+001	 2.49407e-007
831	 5.1875000000e+001	 2.85570e-007
832	 5.1937500000e+001	 2.83764e-007
833	 5.2000000000e+001	 2.15002e-007
834	 5.2062500000e+001	 2.98703e-007
835	 5.2125000000e+001	 2.60368e-007
836	 5.2187500000e+001	 2.68639e-007
837	 5.2250000000e+001	 2.26786e-007
838	 5.2312500000e+001	 2.40265e-007
839	 5.2375000000e+001	 3.16986e-007
840	 5.2437500000e+001	 2.30874e-007
841	 5.2500000000e+001	 2.52339e-007
842	 5.2562500000e+001	 2.64680e-007
843	 5.2625000000e+001	 2.38747e-007
844	 5.2687500000e+001	 2.47900e-007
845	 5.2750000000e+001	 2.88683e-007
846	 5.2812500000e+001	 2.28232e-007
847	 5.2875000000e+001	 2.84555e-007
848	 5.2937500000e+001	 2.03439e-007
849	 5.3000000000e+001	 3.22915e-007
850	 5.3062500000e+001	 2.75506e-007
851	 5.3125000000e+001	 2.00381e-007
852	 5.3187500000e+001	 2.27833e-007
853	 5.3250000000e+001	 3.04195e-007
854	 5.3312500000e+001	 2.29332e-007
855	 5.3375000000e+001	 2.16248e-007
856	 5.3437500000e+001	 2.57461e-007
857	 5.3500000000e+001	 2.82964e-007
858	 5.3562500000e+001	 1.93831e-007
859	 5.3625000000e+001	 2.76670e-007
860	 5.3687500000e+001	 2.07839e-007
861	 5.3750000000e+001	 2.49814e-007
862	 5.3812500000e+001	 2.67706e-007
863	 5.3875000000e+001	 2.33011e-007
864	 5.3937500000e+001	 2.57657e-007
865	 5.4000000000e+001	 2.22124e-007
866	 5.4062500000e+001	 2.34290e-007
867	 5.4125000000e+001	 2.72414e-007
868	 5.4187500000e+001	 2.39040e-007
869	 5.4250000000e+001	 2.38486e-007
870	 5.4312500000e+001	 2.12924e-007
871	 5.4375000000e+001	 2.30873e-007
872	 5.4437500000e+001	 2.52511e-007
873	 5.4500000000e+001	 2.37423e-007
874	 5.4562500000e+001	 2.19021e-007
875	 5.4625000000e+001	 2.68863e-007
876	 5.4687500000e+001	 2.38138e-007
877	 5.4750000000e+001	 2.49320e-007
878	 5.4812500000e+001	 2.32494e-007
879	 5.4875000000e+001	 3.07024e-007
880	 5.4937500000e+001	 2.19024e-007
881	 5.5000000000e+001	 2.23909e-007
882	 5.5062500000e+001	 2.48032e-007
883	 5.5125000000e+001	 2.61918e-007
884	 5.5187500000e+001	 2.43490e-007
885	 5.5250000000e+001	 2.22983e-007
886	 5.5312500000e+001	 2.77426e-007
887	 5.5375000000e+001	 2.48553e-007
888	 5.5437500000e+001	 1.97640e-007
889	 5.5500000000e+001	 2.42942e-007
890	 5.5562500000e+001	 2.75549e-007
891	 5.5625000000e+001	 2.01577e-007
892	 5.5687500000e+001	 2.43409e-007
893	 5.5750000000e+001	 2.25311e-007
894	 5.5812500000e+001	 2.33865e-007
895	 5.5875000000e+001	 2.46225e-007
896	 5.5937500000e+001	 1.74787e-007
897	 5.6000000000e+001	 2.69548e-007
898	 5.6062500000e+001	 2.39314e-007
899	 5.6125000000e+001	 1.52993e-007
900	 5.6187500000e+001	 2.46361e-007
901	 5.6250000000e+001	 2.82983e-007
902	 5.6312500000e+001	 1.47997e-007
903	 5.6375000000e+001	 2.31175e-007
904	 5.6437500000e+001	 2.43407e-007
905	 5.6500000000e+001	 2.02110e-007
906	 5.6562500000e+001	 2.06992e-007
907	 5.6625000000e+001	 2.34377e-007
908	 5.6687500000e+001	 2.31096e-007
909	 5.6750000000e+001	 2.00475e-007
910	 5.6812500000e+001	 1.92199e-007
911	 5.6875000000e+001	 2.44106e-007
912	 5.6937500000e+001	 2.07294e-007
913	 5.7000000000e+001	 2.08983e-007
914	 5.7062500000e+001	 2.28061e-007
915	 5.7125000000e+001	 1.93130e-007
916	 5.7187500000e+001	 2.18350e-007
917	 5.7250000000e+001	 2.42689e-007
918	 5.7312500000e+001	 2.05550e-007
919	 5.7375000000e+001	 2.38981e-007
920	 5.7437500000e+001	 1.86225e-007
921	 5.7500000000e+001	 2.06930e-007
922	 5.7562500000e+001	 2.62970e-007
923	 5.7625000000e+001	 1.93837e-007
924	 5.7687500000e+001	 1.78382e-007
925	 5.7750000000e+001	 2.61896e-007
926	 5.7812500000e+001	 2.11982e-007
927	 5.7875000000e+001	 1.66508e-007
928	 5.7937500000e+001	 2.61230e-007
929	 5.8000000000e+001	 1.85817e-007
930	 5.8062500000e+001	 1.77925e-007
931	 5.8125000000e+001	 2.34038e-007
932	 5.8187500000e+001	 1.71668e-007
933	 5.8250000000e+001	 1.72495e-007
934	 5.8312500000e+001	 2.54478e-007
935	 5.8375000000e+001	 1.91539e-007
936	 5.8437500000e+001	 1.73814e-007
937	 5.8500000000e+001	 2.38878e-007
938	 5.8562500000e+001	 1.87659e-007
939	 5.8625000000e+001	 1.79073e-007
940	 5.8687500000e+001	 1.80253e-007
941	 5.8750000000e+001	 2.04071e-007
942	 5.8812500000e+001	 1.69658e-007
943	 5.8875000000e+001	 2.21617e-007
944	 5.8937500000e+001	 1.70539e-007
945	 5.9000000000e+001	 2.04970e-007
946	 5.9062500000e+001	 1.88211e-007
947	 5.9125000000e+001	 1.57246e-007
948	 5.9187500000e+001	 2.19689e-007
949	 5.9250000000e+001	 1.90064e-007
950	 5.9312500000e+001	 1.89128e-007
951	 5.9375000000e+001	 1.85474e-007
952	 5.9437500000e+001	 1.92852e-007
953	 5.9500000000e+001	 1.89275e-007
954	 5.9562500000e+001	 1.83150e-007
955	 5.9625000000e+001	 1.89108e-007
956	 5.9687500000e+001	 2.24988e-007
957	 5.9750000000e+001	 1.81024e-007
958	 5.9812500000e+001	 1.72514e-007
959	 5.9875000000e+001	 2.32001e-007
960	 5.9937500000e+001	 1.92750e-007
961	 6.0000000000e+001	 1.70233e-007
962	 6.0062500000e+001	 1.98739e-007
963	 6.0125000000e+001	 1.73091e-007
964	 6.0187500000e+001	 1.84161e-007
965	 6.0250000000e+001	 2.49583e-007
966	 6.0312500000e+001	 1.40581e-007
967	 6.0375000000e+001	 2.21586e-007
968	 6.0437500000e+001	 1.94760e-007
969	 6.0500000000e+001	 2.05035e-007
970	 6.0562500000e+001	 1.85169e-007
971	 6.0625000000e+001	 2.07374e-007
972	 6.0687500000e+001	 1.38226e-007
973	 6.0750000000e+001	 1.78560e-007
974	 6.0812500000e+001	 2.20733e-007
975	 6.0875000000e+001	 2.03057e-007
976	 6.0937500000e+001	 1.42941e-007
977	 6.1000000000e+001	 1.78702e-007
978	 6.1062500000e+001	 2.09666e-007
979	 6.1125000000e+001	 1.62658e-007
980	 6.1187500000e+001	 1.90863e-007
981	 6.1250000000e+001	 1.59504e-007
982	 6.1312500000e+001	 1.60796e-007
983	 6.1375000000e+001	 1.87434e-007
984	 6.1437500000e+001	 1.76950e-007
985	 6.1500000000e+001	 1.69058e-007
986	 6.1562500000e+001	 1.82315e-007
987	 6.1625000000e+001	 1.70250e-007
988	 6.1687500000e+001	 1.91820e-007
989	 6.1750000000e+001	 1.59783e-007
990	 6.1812500000e+001	 1.51673e-007
991	 6.1875000000e+001	 1.74150e-007
992	 6.1937500000e+001	 1.72204e-007
993	 6.2000000000e+001	 1.52852e-007
994	 6.2062500000e+001	 2.01083e-007
995	 6.2125000000e+001	 1.74059e-007
996	 6.2187500000e+001	 1.45230e-007
997	 6.2250000000e+001	 1.60277e-007
998	 6.2312500000e+001	 1.89854e-007
999	 6.2375000000e+001	 1.59209e-007
1000	 6.2437500000e+001	 1.34337e-007
1001	 6.2500000000e+001	 1.78649e-007
1002	 6.2562500000e+001	 2.00422e-007
1003	 6.2625000000e+001	 1.51345e-007
1004	 6.2687500000e+001	 1.47981e-007
1005	 6.2750000000e+001	 1.71685e-007
1006	 6.2812500000e+001	 1.83188e-007
1007	 6.2875000000e+001	 1.46686e-007
1008	 6.2937500000e+001	 1.50241e-007
1009	 6.3000000000e+001	 1.70632e-007
1010	 6.3062500000e+001	 1.69355e-007
1011	 6.3125000000e+001	 1.60361e-007
1012	 6.3187500000e+001	 1.51252e-007
1013	 6.3250000000e+001	 1.80961e-007
1014	 6.3312500000e+001	 1.56192e-007
1015	 6.3375000000e+001	 1.47175e-007
1016	 6.3437500000e+001	 1.76913e-007
1017	 6.3500000000e+001	 1.40891e-007
1018	 6.3562500000e+001	 1.78842e-007
1019	 6.3625000000e+001	 1.47541e-007
1020	 6.3687500000e+001	 1.70930e-007
1021	 6.3750000000e+001	 1.45679e-007
1022	 6.3812500000e+001	 1.55458e-007
1023	 6.3875000000e+001	 1.63975e-007
1024	 6.3937500000e+001	 1.53585e-007
1025	 6.4000000000e+001	 1.42771e-007
1026	 6.4062500000e+001	 1.60668e-007
1027	 6.4125000000e+001	 1.56213e-007
1028	 6.4187500000e+001	 1.79998e-007
1029	 6.4250000000e+001	 1.37540e-007
1030	 6.4312500000e+001	 1.53216e-007
1031	 6.4375000000e+001	 1.68127e-007
1032	 6.4437500000e+001	 1.45986e-007
1033	 6.4500000000e+001	 1.70634e-007
1034	 6.4562500000e+001	 1.86638e-007
1035	 6.4625000000e+001	 1.59474e-007
1036	 6.4687500000e+001	 1.50362e-007
1037	 6.4750000000e+001	 1.61713e-007
1038	 6.4812500000e+001	 1.81624e-007
1039	 6.4875000000e+001	 1.66579e-007
1040	 6.4937500000e+001	 1.47089e-007
1041	 6.5000000000e+001	 1.53249e-007
1042	 6.5062500000e+001	 1.55952e-007
1043	 6.5125000000e+001	 1.76659e-007
1044	 6.5187500000e+001	 1.55234e-007
1045	 6.5250000000e+001	 1.76093e-007
1046	 6.5312500000e+001	 1.57100e-007
1047	 6.5375000000e+001	 1.75461e-007
1048	 6.5437500000e+001	 1.55582e-007
1049	 6.5500000000e+001	 1.47702e-007
1050	 6.5562500000e+001	 1.77945e-007
1051	 6.5625000000e+001	 1.31713e-007
1052	 6.5687500000e+001	 1.49891e-007
1053	 6.5750000000e+001	 1.67218e-007
1054	 6.5812500000e+001	 1.44913e-007
1055	 6.5875000000e+001	 1.30879e-007
1056	 6.5937500000e+001	 1.40268e-007
1057	 6.6000000000e+001	 1.52592e-007
1058	 6.6062500000e+001	 1.60625e-007
1059	 6.6125000000e+001	 1.29583e-007
1060	 6.6187500000e+001	 1.20051e-007
1061	 6.6250000000e+001	 1.52229e-007
1062	 6.6312500000e+001	 1.71410e-007
1063	 6.6375000000e+001	 1.23982e-007
1064	 6.6437500000e+001	 1.67261e-007
1065	 6.6500000000e+001	 1.31639e-007
1066	 6.6562500000e+001	 1.28191e-007
1067	 6.6625000000e+001	 1.66652e-007
1068	 6.6687500000e+001	 1.40181e-007
1069	 6.6750000000e+001	 1.12974e-007
1070	 6.6812500000e+001	 1.66930e-007
1071	 6.6875000000e+001	 1.64265e-007
1072	 6.6937500000e+001	 1.44487e-007
1073	 6.7000000000e+001	 1.44285e-007
1074	 6.7062500000e+001	 1.44425e-007
1075	 6.7125000000e+001	 1.67228e-007
1076	 6.7187500000e+001	 1.26412e-007
1077	 6.7250000000e+001	 1.31795e-007
1078	 6.7312500000e+001	 1.49393e-007
1079	 6.7375000000e+001	 1.78177e-007
1080	 6.7437500000e+001	 1.38718e-007
1081	 6.7500000000e+001	 1.42019e-007
1082	 6.7562500000e+001	 1.57843e-007
1083	 6.7625000000e+001	 1.32853e-007
1084	 6.7687500000e+001	 1.44581e-007
1085	 6.7750000000e+001	 1.36009e-007
1086	 6.7812500000e+001	 1.53970e-007
1087	 6.7875000000e+001	 1.51058e-007
1088	 6.7937500000e+001	 1.30063e-007
1089	 6.8000000000e+001	 1.62603e-007
1090	 6.8062500000e+001	 1.49337e-007
1091	 6.8125000000e+001	 1.29748e-007
1092	 6.8187500000e+001	 1.41031e-007
1093	 6.8250000000e+001	 1.54451e-007
1094	 6.8312500000e+001	 1.42002e-007
1095	 6.8375000000e+001	 1.34569e-007
1096	 6.8437500000e+001	 1.20194e-007
1097	 6.8500000000e+001	 1.71975e-007
1098	 6.8562500000e+001	 1.44024e-007
1099	 6.8625000000e+001	 1.30338e-007
1100	 6.8687500000e+001	 1.11543e-007
1101	 6.8750000000e+001	 1.62386e-007
1102	 6.8812500000e+001	 1.40324e-007
1103	 6.8875000000e+001	 1.24599e-007
1104	 6.8937500000e+001	 1.48799e-007
1105	 6.9000000000e+001	 1.13499e-007
1106	 6.9062500000e+001	 1.58603e-007
1107	 6.9125000000e+001	 1.54985e-007
1108	 6.9187500000e+001	 1.22192e-007
1109	 6.9250000000e+001	 1.42547e-007
1110	 6.9312500000e+001	 1.40661e-007
1111	 6.9375000000e+001	 1.53223e-007
1112	 6.9437500000e+001	 1.40366e-007
1113	 6.9500000000e+001	 1.48315e-007
1114	 6.9562500000e+001	 1.30689e-007
1115	 6.9625000000e+001	 1.41179e-007
1116	 6.9687500000e+001	 1.52897e-007
1117	 6.9750000000e+001	 1.42180e-007
1118	 6.9812500000e+001	 1.41022e-007
1119	 6.9875000000e+001	 1.36730e-007
1120	 6.9937500000e+001	 1.49450e-007
1121	 7.0000000000e+001	 1.06183e-007
1122	 7.0062500000e+001	 1.71738e-007
1123	 7.0125000000e+001	 1.47929e-007
1124	 7.0187500000e+001	 1.04808e-007
1125	 7.0250000000e+001	 1.28206e-007
1126	 7.0312500000e+001	 1.60992e-007
1127	 7.0375000000e+001	 1.68119e-007
1128	 7.0437500000e+001	 9.35171e-008
1129	 7.0500000000e+001	 1.35364e-007
1130	 7.0562500000e+001	 1.74377e-007
1131	 7.0625000000e+001	 1.31716e-007
1132	 7.0687500000e+001	 1.36421e-007
1133	 7.0750000000e+001	 1.16426e-007
1134	 7.0812500000e+001	 1.41512e-007
1135	 7.0875000000e+001	 1.33002e-007
1136	 7.0937500000e+001	 1.11908e-007
1137	 7.1000000000e+001	 1.28373e-007
1138	 7.1062500000e+001	 1.38731e-007
1139	 7.1125000000e+001	 1.22756e-007
1140	 7.1187500000e+001	 1.19987e-007
1141	 7.1250000000e+001	 1.44393e-007
1142	 7.1312500000e+001	 1.41873e-007
1143	 7.1375000000e+001	 1.28730e-007
1144	 7.1437500000e+001	 1.50301e-007
1145	 7.1500000000e+001	 1.26537e-007
1146	 7.1562500000e+001	 1.24302e-007
1147	 7.1625000000e+001	 1.58777e-007
1148	 7.1687500000e+001	 1.33490e-007
1149	 7.1750000000e+001	 1.40977e-007
1150	 7.1812500000e+001	 1.28751e-007
1151	 7.1875000000e+001	 1.48193e-007
1152	 7.1937500000e+001	 1.34743e-007
1153	 7.2000000000e+001	 1.62306e-007
1154	 7.2062500000e+001	 1.34523e-007
1155	 7.2125000000e+001	 1.18184e-007
1156	 7.2187500000e+001	 1.33211e-007
1157	 7.2250000000e+001	 1.64721e-007
1158	 7.2312500000e+001	 1.12520e-007
1159	 7.2375000000e+001	 1.30815e-007
1160	 7.2437500000e+001	 1.56939e-007
1161	 7.2500000000e+001	 1.30069e-007
1162	 7.2562500000e+001	 1.45107e-007
1163	 7.2625000000e+001	 1.23273e-007
1164	 7.2687500000e+001	 1.25302e-007
1165	 7.2750000000e+001	 1.32415e-007
1166	 7.2812500000e+001	 1.39435e-007
1167	 7.2875000000e+001	 1.40831e-007
1168	 7.2937500000e+001	 1.22775e-007
1169	 7.3000000000e+001	 1.26361e-007
1170	 7.3062500000e+001	 1.32241e-007
1171	 7.3125000000e+001	 1.37750e-007
1172	 7.3187500000e+001	 1.22194e-007
1173	 7.3250000000e+001	 1.35546e-007
1174	 7.3312500000e+001	 1.16503e-007
1175	 7.3375000000e+001	 1.49131e-007
1176	 7.3437500000e+001	 1.09688e-007
1177	 7.3500000000e+001	 1.21182e-007
1178	 7.3562500000e+001	 1.13973e-007
1179	 7.3625000000e+001	 1.49236e-007
1180	 7.3687500000e+001	 1.13096e-007
1181	 7.3750000000e+001	 1.18465e-007
1182	 7.3812500000e+001	 1.27784e-007
1183	 7.3875000000e+001	 1.39926e-007
1184	 7.3937500000e+001	 1.11309e-007
1185	 7.4000000000e+001	 1.29709e-007
1186	 7.4062500000e+001	 1.29426e-007
1187	 7.4125000000e+001	 1.00457e-007
1188	 7.4187500000e+001	 1.38097e-007
1189	 7.4250000000e+001	 1.21788e-007
1190	 7.4312500000e+001	 1.36268e-007
1191	 7.4375000000e+001	 1.13138e-007
1192	 7.4437500000e+001	 1.16633e-007
1193	 7.4500000000e+001	 1.13379e-007
1194	 7.4562500000e+001	 1.37899e-007
1195	 7.4625000000e+001	 1.13412e-007
1196	 7.4687500000e+001	 1.25434e-007
1197	 7.4750000000e+001	 8.25080e-008
1198	 7.4812500000e+001	 1.56513e-007
1199	 7.4875000000e+001	 1.18689e-007
1200	 7.4937500000e+001	 7.21678e-008
1201	 7.5000000000e+001	 1.87289e-007
1202	 7.5062500000e+001	 1.46164e-007
1203	 7.5125000000e+001	 9.07507e-008
1204	 7.5187500000e+001	 1.24572e-007
1205	 7.5250000000e+001	 1.19774e-007
1206	 7.5312500000e+001	 1.31948e-007
1207	 7.5375000000e+001	 9.41165e-008
1208	 7.5437500000e+001	 1.20793e-007
1209	 7.5500000000e+001	 1.24416e-007
1210	 7.5562500000e+001	 1.25902e-007
1211	 7.5625000000e+001	 9.80072e-008
1212	 7.5687500000e+001	 1.19824e-007
1213	 7.5750000000e+001	 9.88006e-008
1214	 7.5812500000e+001	 1.37002e-007
1215	 7.5875000000e+001	 1.05803e-007
1216	 7.5937500000e+001	 9.01112e-008
1217	 7.6000000000e+001	 1.39825e-007
1218	 7.6062500000e+001	 1.06099e-007
1219	 7.6125000000e+001	 1.19637e-007
1220	 7.6187500000e+001	 1.20111e-007
1221	 7.6250000000e+001	 9.84774e-008
1222	 7.6312500000e+001	 1.18785e-007
1223	 7.6375000000e+001	 1.40181e-007
1224	 7.6437500000e+001	 1.04465e-007
1225	 7.6500000000e+001	 1.15506e-007
1226	 7.6562500000e+001	 1.07935e-007
1227	 7.6625000000e+001	 1.21027e-007
1228	 7.6687500000e+001	 1.33940e-007
1229	 7.6750000000e+001	 8.90788e-008
1230	 7.6812500000e+001	 9.75431e-008
1231	 7.6875000000e+001	 1.32699e-007
1232	 7.6937500000e+001	 1.07286e-007
1233	 7.7000000000e+001	 1.04873e-007
1234	 7.7062500000e+001	 1.10042e-007
1235	 7.7125000000e+001	 1.09258e-007
1236	 7.7187500000e+001	 1.23506e-007
1237	 7.7250000000e+001	 8.70348e-008
1238	 7.7312500000e+001	 1.18703e-007
1239	 7.7375000000e+001	 1.03908e-007
1240	 7.7437500000e+001	 9.82114e-008
1241	 7.7500000000e+001	 1.25405e-007
1242	 7.7562500000e+001	 1.13386e-007
1243	 7.7625000000e+001	 1.05300e-007
1244	 7.7687500000e+001	 1.13501e-007
1245	 7.7750000000e+001	 1.07516e-007
1246	 7.7812500000e+001	 1.04795e-007
1247	 7.7875000000e+001	 1.02504e-007
1248	 7.7937500000e+001	 1.10772e-007
1249	 7.8000000000e+001	 8.69558e-008
1250	 7.8062500000e+001	 1.13439e-007
1251	 7.8125000000e+001	 1.15383e-007
1252	 7.8187500000e+001	 9.86568e-008
1253	 7.8250000000e+001	 1.13762e-007
1254	 7.8312500000e+001	 1.04783e-007
1255	 7.8375000000e+001	 1.02089e-007
1256	 7.8437500000e+001	 1.04747e-007
1257	 7.8500000000e+001	 1.07338e-007
1258	 7.8562500000e+001	 1.04253e-007
1259	 7.8625000000e+001	 1.21025e-007
1260	 7.8687500000e+001	 8.86344e-008
1261	 7.8750000000e+001	 1.17630e-007
1262	 7.8812500000e+001	 1.17447e-007
1263	 7.8875000000e+001	 9.75809e-008
1264	 7.8937500000e+001	 1.15043e-007
1265	 7.9000000000e+001	 1.10407e-007
1266	 7.9062500000e+001	 9.71362e-008
1267	 7.9125000000e+001	 1.05123e-007
1268	 7.9187500000e+001	 1.30063e-007
1269	 7.9250000000e+001	 8.60576e-008
1270	 7.9312500000e+001	 1.14004e-007
1271	 7.9375000000e+001	 8.36334e-008
1272	 7.9437500000e+001	 1.11469e-007
1273	 7.9500000000e+001	 1.28549e-007
1274	 7.9562500000e+001	 1.04028e-007
1275	 7.9625000000e+001	 8.83002e-008
1276	 7.9687500000e+001	 1.08790e-007
1277	 7.9750000000e+001	 1.09580e-007
1278	 7.9812500000e+001	 1.14070e-007
1279	 7.9875000000e+001	 9.91465e-008
1280	 7.9937500000e+001	 9.27736e-008
1281	 8.0000000000e+001	 1.13073e-007
1282	 8.0062500000e+001	 1.10622e-007
1283	 8.0125000000e+001	 1.20100e-007
1284	 8.0187500000e+001	 9.47605e-008
1285	 8.0250000000e+001	 8.45373e-008
1286	 8.0312500000e+001	 1.20327e-007
1287	 8.0375000000e+001	 1.28029e-007
1288	 8.0437500000e+001	 8.30772e-008
1289	 8.0500000000e+001	 9.57347e-008
1290	 8.0562500000e+001	 1.20698e-007
1291	 8.0625000000e+001	 8.69814e-008
1292	 8.0687500000e+001	 1.26714e-007
1293	 8.0750000000e+001	 8.87951e-008
1294	 8.0812500000e+001	 9.20346e-008
1295	 8.0875000000e+001	 1.24077e-007
1296	 8.0937500000e+001	 8.83380e-008
1297	 8.1000000000e+001	 1.12294e-007
1298	 8.1062500000e+001	 1.07938e-007
1299	 8.1125000000e+001	 1.05524e-007
1300	 8.1187500000e+001	 8.62558e-008
1301	 8.1250000000e+001	 1.17394e-007
1302	 8.1312500000e+001	 1.07525e-007
1303	 8.1375000000e+001	 8.16995e-008
1304	 8.1437500000e+001	 1.09285e-007
1305	 8.1500000000e+001	 1.03593e-007
1306	 8.1562500000e+001	 8.92674e-008
1307	 8.1625000000e+001	 1.15431e-007
1308	 8.1687500000e+001	 7.87909e-008
1309	 8.1750000000e+001	 1.04565e-007
1310	 8.1812500000e+001	 1.27678e-007
1311	 8.1875000000e+001	 9.41120e-008
1312	 8.1937500000e+001	 7.55093e-008
1313	 8.2000000000e+001	 1.04286e-007
1314	 8.2062500000e+001	 1.22803e-007
1315	 8.2125000000e+001	 9.92320e-008
1316	 8.2187500000e+001	 8.17758e-008
1317	 8.2250000000e+001	 1.00108e-007
1318	 8.2312500000e+001	 1.14353e-007
1319	 8.2375000000e+001	 1.00337e-007
1320	 8.2437500000e+001	 1.03603e-007
1321	 8.2500000000e+001	 8.07211e-008
1322	 8.2562500000e+001	 1.07021e-007
1323	 8.2625000000e+001	 1.00349e-007
1324	 8.2687500000e+001	 8.57172e-008
1325	 8.2750000000e+001	 9.18933e-008
1326	 8.2812500000e+001	 1.15458e-007
1327	 8.2875000000e+001	 9.09080e-008
1328	 8.2937500000e+001	 1.09485e-007
1329	 8.3000000000e+001	 8.88206e-008
1330	 8.3062500000e+001	 8.92030e-008
1331	 8.3125000000e+001	 9.26432e-008
1332	 8.3187500000e+001	 1.31066e-007
1333	 8.3250000000e+001	 7.04995e-008
1334	 8.3312500000e+001	 7.92856e-008
1335	 8.3375000000e+001	 1.10060e-007
1336	 8.3437500000e+001	 1.05205e-007
1337	 8.3500000000e+001	 1.00075e-007
1338	 8.3562500000e+001	 9.29769e-008
1339	 8.3625000000e+001	 8.73435e-008
1340	 8.3687500000e+001	 8.27533e-008
1341	 8.3750000000e+001	 1.18719e-007
1342	 8.3812500000e+001	 9.06797e-008
1343	 8.3875000000e+001	 7.88592e-008
1344	 8.3937500000e+001	 9.91106e-008
1345	 8.4000000000e+001	 9.05514e-008
1346	 8.4062500000e+001	 8.03682e-008
1347	 8.4125000000e+001	 1.06600e-007
1348	 8.4187500000e+001	 9.28278e-008
1349	 8.4250000000e+001	 8.27961e-008
1350	 8.4312500000e+001	 1.05860e-007
1351	 8.4375000000e+001	 8.63353e-008
1352	 8.4437500000e+001	 1.09952e-007
1353	 8.4500000000e+001	 8.06023e-008
1354	 8.4562500000e+001	 9.39865e-008
1355	 8.4625000000e+001	 8.23657e-008
1356	 8.4687500000e+001	 1.09842e-007
1357	 8.4750000000e+001	 9.70776e-008
1358	 8.4812500000e+001	 7.52373e-008
1359	 8.4875000000e+001	 1.00129e-007
1360	 8.4937500000e+001	 1.03434e-007
1361	 8.5000000000e+001	 8.06228e-008
1362	 8.5062500000e+001	 9.08694e-008
1363	 8.5125000000e+001	 9.54444e-008
1364	 8.5187500000e+001	 7.99967e-008
1365	 8.5250000000e+001	 1.17237e-007
1366	 8.5312500000e+001	 8.11532e-008
1367	 8.5375000000e+001	 9.43069e-008
1368	 8.5437500000e+001	 1.05404e-007
1369	 8.5500000000e+001	 9.28016e-008
1370	 8.5562500000e+001	 9.08406e-008
1371	 8.5625000000e+001	 8.22151e-008
1372	 8.5687500000e+001	 9.24666e-008
1373	 8.5750000000e+001	 8.63592e-008
1374	 8.5812500000e+001	 9.68909e-008
1375	 8.5875000000e+001	 8.78676e-008
1376	 8.5937500000e+001	 8.18789e-008
1377	 8.6000000000e+001	 1.08644e-007
1378	 8.6062500000e+001	 9.24404e-008
1379	 8.6125000000e+001	 8.64151e-008
1380	 8.6187500000e+001	 8.58579e-008
1381	 8.6250000000e+001	 9.40079e-008
1382	 8.6312500000e+001	 8.53478e-008
1383	 8.6375000000e+001	 7.77174e-008
1384	 8.6437500000e+001	 9.55696e-008
1385	 8.6500000000e+001	 7.95766e-008
1386	 8.6562500000e+001	 8.49003e-008
1387	 8.6625000000e+001	 1.08473e-007
1388	 8.6687500000e+001	 9.31760e-008
1389	 8.6750000000e+001	 7.07050e-008
1390	 8.6812500000e+001	 1.03225e-007
1391	 8.6875000000e+001	 6.61133e-008
1392	 8.6937500000e+001	 8.47686e-008
1393	 8.7000000000e+001	 8.71595e-008
1394	 8.7062500000e+001	 8.91546e-008
1395	 8.7125000000e+001	 8.44272e-008
1396	 8.7187500000e+001	 8.71333e-008
1397	 8.7250000000e+001	 9.19814e-008
1398	 8.7312500000e+001	 7.97665e-008
1399	 8.7375000000e+001	 8.26495e-008
1400	 8.7437500000e+001	 7.72460e-008
1401	 8.7500000000e+001	 8.93238e-008
1402	 8.7562500000e+001	 1.08203e-007
1403	 8.7625000000e+001	 6.60574e-008
1404	 8.7687500000e+001	 8.56535e-008
1405	 8.7750000000e+001	 9.21922e-008
1406	 8.7812500000e+001	 9.95074e-008
1407	 8.7875000000e+001	 7.13356e-008
1408	 8.7937500000e+001	 7.23987e-008
1409	 8.8000000000e+001	 1.10488e-007
1410	 8.8062500000e+001	 7.19805e-008
1411	 8.8125000000e+001	 9.70252e-008
1412	 8.8187500000e+001	 1.10062e-007
1413	 8.8250000000e+001	 6.45947e-008
1414	 8.8312500000e+001	 8.30384e-008
1415	 8.8375000000e+001	 1.02177e-007
1416	 8.8437500000e+001	 7.78507e-008
1417	 8.8500000000e+001	 9.14291e-008
1418	 8.8562500000e+001	 9.16685e-008
1419	 8.8625000000e+001	 6.83994e-008
1420	 8.8687500000e+001	 9.85722e-008
1421	 8.8750000000e+001	 9.43827e-008
1422	 8.8812500000e+001	 7.23334e-008
1423	 8.8875000000e+001	 8.26547e-008
1424	 8.8937500000e+001	 1.07240e-007
1425	 8.9000000000e+001	 7.76979e-008
1426	 8.9062500000e+001	 8.48396e-008
1427	 8.9125000000e+001	 8.83210e-008
1428	 8.9187500000e+001	 9.03537e-008
1429	 8.9250000000e+001	 8.09506e-008
1430	 8.9312500000e+001	 9.30481e-008
1431	 8.9375000000e+001	 9.47908e-008
1432	 8.9437500000e+001	 6.98301e-008
1433	 8.9500000000e+001	 8.70647e-008
1434	 8.9562500000e+001	 8.27783e-008
1435	 8.9625000000e+001	 9.62226e-008
1436	 8.9687500000e+001	 9.15335e-008
1437	 8.9750000000e+001	 5.68893e-008
1438	 8.9812500000e+001	 9.75523e-008
1439	 8.9875000000e+001	 1.04051e-007
1440	 8.9937500000e+001	 6.19957e-008
1441	 9.0000000000e+001	 8.41863e-008
1442	 9.0062500000e+001	 8.63592e-008
1443	 9.0125000000e+001	 8.07107e-008
1444	 9.0187500000e+001	 8.26112e-008
1445	 9.0250000000e+001	 9.02300e-008
1446	 9.0312500000e+001	 8.19841e-008
1447	 9.0375000000e+001	 6.74831e-008
1448	 9.0437500000e+001	 9.53783e-008
1449	 9.0500000000e+001	 9.26701e-008
1450	 9.0562500000e+001	 5.59128e-008
1451	 9.0625000000e+001	 8.31133e-008
1452	 9.0687500000e+001	 9.46075e-008
1453	 9.0750000000e+001	 8.09228e-008
1454	 9.0812500000e+001	 6.76579e-008
1455	 9.0875000000e+001	 7.82893e-008
1456	 9.0937500000e+001	 1.15350e-007
1457	 9.1000000000e+001	 6.12088e-008
1458	 9.1062500000e+001	 7.31711e-008
1459	 9.1125000000e+001	 9.04021e-008
1460	 9.1187500000e+001	 6.65145e-008
1461	 9.1250000000e+001	 7.47202e-008
1462	 9.1312500000e+001	 1.09771e-007
1463	 9.1375000000e+001	 5.65147e-008
1464	 9.1437500000e+001	 7.90245e-008
1465	 9.1500000000e+001	 8.42743e-008
1466	 9.1562500000e+001	 9.16331e-008
1467	 9.1625000000e+001	 7.56923e-008
1468	 9.1687500000e+001	 6.59107e-008
1469	 9.1750000000e+001	 8.47100e-008
1470	 9.1812500000e+001	 7.06881e-008
1471	 9.1875000000e+001	 8.09133e-008
1472	 9.1937500000e+001	 7.33193e-008
1473	 9.2000000000e+001	 7.12991e-008
1474	 9.2062500000e+001	 7.30944e-008
1475	 9.2125000000e+001	 1.01414e-007
1476	 9.2187500000e+001	 7.02265e-008
1477	 9.2250000000e+001	 7.39251e-008
1478	 9.2312500000e+001	 8.06848e-008
1479	 9.2375000000e+001	 7.87345e-008
1480	 9.2437500000e+001	 7.64759e-008
1481	 9.2500000000e+001	 8.19081e-008
1482	 9.2562500000e+001	 7.57030e-008
1483	 9.2625000000e+001	 6.96713e-008
1484	 9.2687500000e+001	 8.69597e-008
1485	 9.2750000000e+001	 7.16766e-008
1486	 9.2812500000e+001	 7.33194e-008
1487	 9.2875000000e+001	 8.36563e-008
1488	 9.2937500000e+001	 8.12177e-008
1489	 9.3000000000e+001	 7.11694e-008
1490	 9.3062500000e+001	 7.73886e-008
1491	 9.3125000000e+001	 6.26974e-008
1492	 9.3187500000e+001	 1.04874e-007
1493	 9.3250000000e+001	 7.95409e-008
1494	 9.3312500000e+001	 4.93997e-008
1495	 9.3375000000e+001	 9.76854e-008
1496	 9.3437500000e+001	 8.64536e-008
1497	 9.3500000000e+001	 6.52846e-008
1498	 9.3562500000e+001	 7.81102e-008
1499	 9.3625000000e+001	 8.13850e-008
1500	 9.3687500000e+001	 6.36632e-008
1501	 9.3750000000e+001	 7.12051e-008
1502	 9.3812500000e+001	 1.05258e-007
1503	 9.3875000000e+001	 6.04161e-008
1504	 9.3937500000e+001	 7.03647e-008
1505	 9.4000000000e+001	 8.70285e-008
1506	 9.4062500000e+001	 7.83173e-008
1507	 9.4125000000e+001	 6.52366e-008
1508	 9.4187500000e+001	 8.49174e-008
1509	 9.4250000000e+001	 8.12704e-008
1510	 9.4312500000e+001	 6.78416e-008
1511	 9.4375000000e+001	 6.70293e-008
1512	 9.4437500000e+001	 8.00612e-008
1513	 9.4500000000e+001	 7.77603e-008
1514	 9.4562500000e+001	 7.92446e-008
1515	 9.4625000000e+001	 5.91279e-008
1516	 9.4687500000e+001	 8.55549e-008
1517	 9.4750000000e+001	 8.11476e-008
1518	 9.4812500000e+001	 7.90429e-008
1519	 9.4875000000e+001	 6.19990e-008
1520	 9.4937500000e+001	 7.97514e-008
1521	 9.5000000000e+001	 7.29183e-008
1522	 9.5062500000e+001	 7.58411e-008
1523	 9.5125000000e+001	 7.87124e-008
1524	 9.5187500000e+001	 7.36539e-008
1525	 9.5250000000e+001	 6.44965e-008
1526	 9.5312500000e+001	 9.15707e-008
1527	 9.5375000000e+001	 9.91953e-008
1528	 9.5437500000e+001	 4.93962e-008
1529	 9.5500000000e+001	 7.72693e-008
1530	 9.5562500000e+001	 9.31092e-008
1531	 9.5625000000e+001	 5.33589e-008
1532	 9.5687500000e+001	 7.42826e-008
1533	 9.5750000000e+001	 8.76171e-008
1534	 9.5812500000e+001	 5.92063e-008
1535	 9.5875000000e+001	 8.91774e-008
1536	 9.5937500000e+001	 9.14984e-008
1537	 9.6000000000e+001	 5.27702e-008
1538	 9.6062500000e+001	 6.47738e-008
1539	 9.6125000000e+001	 1.07310e-007
1540	 9.6187500000e+001	 6.48030e-008
1541	 9.6250000000e+001	 7.35218e-008
1542	 9.6312500000e+001	 8.57595e-008
1543	 9.6375000000e+001	 6.85098e-008
1544	 9.6437500000e+001	 8.07231e-008
1545	 9.6500000000e+001	 7.76492e-008
1546	 9.6562500000e+001	 8.19502e-008
1547	 9.6625000000e+001	 6.00206e-008
1548	 9.6687500000e+001	 8.38240e-008
1549	 9.6750000000e+001	 7.67204e-008
1550	 9.6812500000e+001	 9.31665e-008
1551	 9.6875000000e+001	 5.65915e-008
1552	 9.6937500000e+001	 6.53703e-008
1553	 9.7000000000e+001	 7.94557e-008
1554	 9.7062500000e+001	 8.67344e-008
1555	 9.7125000000e+001	 7.03042e-008
1556	 9.7187500000e+001	 6.85709e-008
1557	 9.7250000000e+001	 7.88131e-008
1558	 9.7312500000e+001	 8.82753e-008
1559	 9.7375000000e+001	 7.22570e-008
1560	 9.7437500000e+001	 6.82014e-008
1561	 9.7500000000e+001	 8.76080e-008
1562	 9.7562500000e+001	 7.06940e-008
1563	 9.7625000000e+001	 6.77105e-008
1564	 9.7687500000e+001	 1.00285e-007
1565	 9.7750000000e+001	 5.85398e-008
1566	 9.7812500000e+001	 7.93008e-008
1567	 9.7875000000e+001	 7.87137e-008
1568	 9.7937500000e+001	 6.61901e-008
1569	 9.8000000000e+001	 8.00833e-008
1570	 9.8062500000e+001	 6.64833e-008
1571	 9.8125000000e+001	 7.14350e-008
1572	 9.8187500000e+001	 8.55110e-008
1573	 9.8250000000e+001	 6.97611e-008
1574	 9.8312500000e+001	 6.44356e-008
1575	 9.8375000000e+001	 6.97006e-008
1576	 9.8437500000e+001	 1.05429e-007
1577	 9.8500000000e+001	 6.43103e-008
1578	 9.8562500000e+001	 6.41000e-008
1579	 9.8625000000e+001	 8.32090e-008
1580	 9.8687500000e+001	 6.99493e-008
1581	 9.8750000000e+001	 7.76436e-008
1582	 9.8812500000e+001	 7.00770e-008
1583	 9.8875000000e+001	 7.00394e-008
1584	 9.8937500000e+001	 6.83758e-008
1585	 9.9000000000e+001	 8.14660e-008
1586	 9.9062500000e+001	 7.05675e-008
1587	 9.9125000000e+001	 7.28500e-008
1588	 9.9187500000e+001	 6.00367e-008
1589	 9.9250000000e+001	 6.80797e-008
1590	 9.9312500000e+001	 6.48065e-008
1591	 9.9375000000e+001	 7.80652e-008
1592	 9.9437500000e+001	 7.16897e-008
1593	 9.9500000000e+001	 7.31934e-008
1594	 9.9562500000e+001	 4.96154e-008
1595	 9.9625000000e+001	 8.98616e-008
1596	 9.9687500000e+001	 6.14037e-008
1597	 9.9750000000e+001	 6.04884e-008
1598	 9.9812500000e+001	 7.50027e-008
1599	 9.9875000000e+001	 4.68726e-008
1600	 9.9937500000e+001	 9.05659e-008
1601	 1.0000000000e+002	 8.65427e-008
1602	 1.0006250000e+002	 4.95632e-008
1603	 1.0012500000e+002	 6.05773e-008
1604	 1.0018750000e+002	 8.02881e-008
1605	 1.0025000000e+002	 6.37420e-008
1606	 1.0031250000e+002	 5.10673e-008
1607	 1.0037500000e+002	 6.05753e-008
1608	 1.0043750000e+002	 8.57090e-008
1609	 1.0050000000e+002	 5.90987e-008
1610	 1.0056250000e+002	 6.01064e-008
1611	 1.0062500000e+002	 6.78522e-008
1612	 1.0068750000e+002	 5.13929e-008
1613	 1.0075000000e+002	 7.33688e-008
1614	 1.0081250000e+002	 8.19329e-008
1615	 1.0087500000e+002	 4.25986e-008
1616	 1.0093750000e+002	 6.54937e-008
1617	 1.0100000000e+002	 7.73798e-008
1618	 1.0106250000e+002	 8.07402e-008
1619	 1.0112500000e+002	 5.30382e-008
1620	 1.0118750000e+002	 5.43654e-008
1621	 1.0125000000e+002	 7.26573e-008
1622	 1.0131250000e+002	 7.42290e-008
1623	 1.0137500000e+002	 5.87286e-008
1624	 1.0143750000e+002	 5.05687e-008
1625	 1.0150000000e+002	 6.95971e-008
1626	 1.0156250000e+002	 7.27741e-008
1627	 1.0162500000e+002	 4.37383e-008
1628	 1.0168750000e+002	 8.12865e-008
1629	 1.0175000000e+002	 4.69903e-008
1630	 1.0181250000e+002	 6.23809e-008
1631	 1.0187500000e+002	 6.29143e-008
1632	 1.0193750000e+002	 6.11480e-008
1633	 1.0200000000e+002	 6.43510e-008
1634	 1.0206250000e+002	 5.09893e-008
1635	 1.0212500000e+002	 7.63927e-008
1636	 1.0218750000e+002	 6.48740e-008
1637	 1.0225000000e+002	 4.93594e-008
1638	 1.0231250000e+002	 6.84524e-008
1639	 1.0237500000e+002	 5.77737e-008
1640	 1.0243750000e+002	 5.93627e-008
1641	 1.0250000000e+002	 6.01767e-008
1642	 1.0256250000e+002	 5.94000e-008
1643	 1.0262500000e+002	 5.37041e-008
1644	 1.0268750000e+002	 6.48937e-008
1645	 1.0275000000e+002	 7.87883e-008
1646	 1.0281250000e+002	 4.93496e-008
1647	 1.0287500000e+002	 4.33371e-008
1648	 1.0293750000e+002	 6.08461e-008
1649	 1.0300000000e+002	 6.57829e-008
1650	 1.0306250000e+002	 6.40207e-008
1651	 1.0312500000e+002	 4.52110e-008
1652	 1.0318750000e+002	 5.91947e-008
1653	 1.0325000000e+002	 7.51328e-008
1654	 1.0331250000e+002	 5.59361e-008
1655	 1.0337500000e+002	 5.52708e-008
1656	 1.0343750000e+002	 6.45451e-008
1657	 1.0350000000e+002	 5.34476e-008
1658	 1.0356250000e+002	 6.05420e-008
1659	 1.0362500000e+002	 5.50601e-008
1660	 1.0368750000e+002	 5.78899e-008
1661	 1.0375000000e+002	 5.67916e-008
1662	 1.0381250000e+002	 6.52420e-008
1663	 1.0387500000e+002	 4.86671e-008
1664	 1.0393750000e+002	 5.96348e-008
1665	 1.0400000000e+002	 5.86624e-008
1666	 1.0406250000e+002	 4.88145e-008
1667	 1.0412500000e+002	 7.43821e-008
1668	 1.0418750000e+002	 5.46620e-008
1669	 1.0425000000e+002	 4.31891e-008
1670	 1.0431250000e+002	 6.71015e-008
1671	 1.0437500000e+002	 5.86591e-008
1672	 1.0443750000e+002	 6.06969e-008
1673	 1.0450000000e+002	 4.87587e-008
1674	 1.0456250000e+002	 5.76887e-008
1675	 1.0462500000e+002	 7.30335e-008
1676	 1.0468750000e+002	 4.57279e-008
1677	 1.0475000000e+002	 5.60065e-008
1678	 1.0481250000e+002	 7.36896e-008
1679	 1.0487500000e+002	 5.58122e-008
1680	 1.0493750000e+002	 5.09678e-008
1681	 1.0500000000e+002	 5.78192e-008
1682	 1.0506250000e+002	 6.30569e-008
1683	 1.0512500000e+002	 5.33179e-008
1684	 1.0518750000e+002	 5.06217e-008
1685	 1.0525000000e+002	 5.36447e-008
1686	 1.0531250000e+002	 6.78973e-008
1687	 1.0537500000e+002	 5.70613e-008
1688	 1.0543750000e+002	 7.24676e-008
1689	 1.0550000000e+002	 5.41211e-008
1690	 1.0556250000e+002	 5.85757e-008
1691	 1.0562500000e+002	 5.47701e-008
1692	 1.0568750000e+002	 8.30150e-008
1693	 1.0575000000e+002	 4.97547e-008
1694	 1.0581250000e+002	 4.32577e-008
1695	 1.0587500000e+002	 8.62368e-008
1696	 1.0593750000e+002	 5.61352e-008
1697	 1.0600000000e+002	 6.24902e-008
1698	 1.0606250000e+002	 6.21461e-008
1699	 1.0612500000e+002	 5.89716e-008
1700	 1.0618750000e+002	 6.51679e-008
1701	 1.0625000000e+002	 6.32582e-008
1702	 1.0631250000e+002	 6.43224e-008
1703	 1.0637500000e+002	 4.68628e-008
1704	 1.0643750000e+002	 6.17828e-008
1705	 1.0650000000e+002	 8.14951e-008
1706	 1.0656250000e+002	 5.10806e-008
1707	 1.0662500000e+002	 5.03687e-008
1708	 1.0668750000e+002	 8.01581e-008
1709	 1.0675000000e+002	 8.89802e-008
1710	 1.0681250000e+002	 3.67765e-008
1711	 1.0687500000e+002	 6.04118e-008
1712	 1.0693750000e+002	 7.22642e-008
1713	 1.0700000000e+002	 4.93512e-008
1714	 1.0706250000e+002	 6.44528e-008
1715	 1.0712500000e+002	 5.20064e-008
1716	 1.0718750000e+002	 6.83525e-008
1717	 1.0725000000e+002	 5.86208e-008
1718	 1.0731250000e+002	 7.39680e-008
1719	 1.0737500000e+002	 4.35205e-008
1720	 1.0743750000e+002	 6.78583e-008
1721	 1.0750000000e+002	 6.38419e-008
1722	 1.0756250000e+002	 5.69223e-008
1723	 1.0762500000e+002	 5.15075e-008
1724	 1.0768750000e+002	 6.72232e-008
1725	 1.0775000000e+002	 6.01376e-008
1726	 1.0781250000e+002	 6.15112e-008
1727	 1.0787500000e+002	 5.78916e-008
1728	 1.0793750000e+002	 6.36717e-008
1729	 1.0800000000e+002	 5.60489e-008
1730	 1.0806250000e+002	 7.42465e-008
1731	 1.0812500000e+002	 5.48950e-008
1732	 1.0818750000e+002	 5.72809e-008
1733	 1.0825000000e+002	 8.11227e-008
1734	 1.0831250000e+002	 4.81147e-008
1735	 1.0837500000e+002	 5.12849e-008
1736	 1.0843750000e+002	 6.30348e-008
1737	 1.0850000000e+002	 8.71257e-008
1738	 1.0856250000e+002	 4.60260e-008
1739	 1.0862500000e+002	 5.22354e-008
1740	 1.0868750000e+002	 6.46764e-008
1741	 1.0875000000e+002	 7.98993e-008
1742	 1.0881250000e+002	 4.79384e-008
1743	 1.0887500000e+002	 5.51442e-008
1744	 1.0893750000e+002	 5.72437e-008
1745	 1.0900000000e+002	 6.03835e-008
1746	 1.0906250000e+002	 6.47764e-008
1747	 1.0912500000e+002	 6.06628e-008
1748	 1.0918750000e+002	 6.20586e-008
1749	 1.0925000000e+002	 5.15922e-008
1750	 1.0931250000e+002	 6.84436e-008
1751	 1.0937500000e+002	 5.86127e-008
1752	 1.0943750000e+002	 4.84556e-008
1753	 1.0950000000e+002	 6.84927e-008
1754	 1.0956250000e+002	 5.35258e-008
1755	 1.0962500000e+002	 5.28249e-008
1756	 1.0968750000e+002	 5.20816e-008
1757	 1.0975000000e+002	 6.39211e-008
1758	 1.0981250000e+002	 5.66598e-008
1759	 1.0987500000e+002	 6.06348e-008
1760	 1.0993750000e+002	 4.96308e-008
1761	 1.1000000000e+002	 6.88244e-008
1762	 1.1006250000e+002	 6.42097e-008
1763	 1.1012500000e+002	 4.38933e-008
1764	 1.1018750000e+002	 4.63166e-008
1765	 1.1025000000e+002	 6.41344e-008
1766	 1.1031250000e+002	 6.30728e-008
1767	 1.1037500000e+002	 4.93101e-008
1768	 1.1043750000e+002	 5.34622e-008
1769	 1.1050000000e+002	 5.06803e-008
1770	 1.1056250000e+002	 6.91499e-008
1771	 1.1062500000e+002	 4.53801e-008
1772	 1.1068750000e+002	 5.09807e-008
1773	 1.1075000000e+002	 4.72066e-008
1774	 1.1081250000e+002	 5.25741e-008
1775	 1.1087500000e+002	 6.35749e-008
1776	 1.1093750000e+002	 4.44251e-008
1777	 1.1100000000e+002	 4.78017e-008
1778	 1.1106250000e+002	 7.28075e-008
1779	 1.1112500000e+002	 4.77138e-008
1780	 1.1118750000e+002	 5.29005e-008
1781	 1.1125000000e+002	 4.30651e-008
1782	 1.1131250000e+002	 4.89255e-008
1783	 1.1137500000e+002	 6.18179e-008
1784	 1.1143750000e+002	 5.73696e-008
1785	 1.1150000000e+002	 3.90195e-008
1786	 1.1156250000e+002	 4.60130e-008
1787	 1.1162500000e+002	 7.45758e-008
1788	 1.1168750000e+002	 4.46636e-008
1789	 1.1175000000e+002	 4.54405e-008
1790	 1.1181250000e+002	 6.06229e-008
1791	 1.1187500000e+002	 5.68004e-008
1792	 1.1193750000e+002	 5.07781e-008
1793	 1.1200000000e+002	 4.66385e-008
1794	 1.1206250000e+002	 4.62752e-008
1795	 1.1212500000e+002	 5.64985e-008
1796	 1.1218750000e+002	 5.12924e-008
1797	 1.1225000000e+002	 5.31905e-008
1798	 1.1231250000e+002	 5.50270e-008
1799	 1.1237500000e+002	 4.91884e-008
1800	 1.1243750000e+002	 5.20717e-008
1801	 1.1250000000e+002	 5.28648e-008
1802	 1.1256250000e+002	 5.66158e-008
1803	 1.1262500000e+002	 4.49036e-008
1804	 1.1268750000e+002	 4.70854e-008
1805	 1.1275000000e+002	 8.33955e-008
1806	 1.1281250000e+002	 5.12928e-008
1807	 1.1287500000e+002	 3.66925e-008
1808	 1.1293750000e+002	 5.39533e-008
1809	 1.1300000000e+002	 6.41335e-008
1810	 1.1306250000e+002	 4.00425e-008
1811	 1.1312500000e+002	 4.08313e-008
1812	 1.1318750000e+002	 7.76489e-008
1813	 1.1325000000e+002	 5.03150e-008
1814	 1.1331250000e+002	 4.89650e-008
1815	 1.1337500000e+002	 5.20778e-008
1816	 1.1343750000e+002	 5.54589e-008
1817	 1.1350000000e+002	 5.97428e-008
1818	 1.1356250000e+002	 3.78083e-008
1819	 1.1362500000e+002	 5.31320e-008
1820	 1.1368750000e+002	 6.55593e-008
1821	 1.1375000000e+002	 5.92409e-008
1822	 1.1381250000e+002	 3.48675e-008
1823	 1.1387500000e+002	 4.84869e-008
1824	 1.1393750000e+002	 6.88194e-008
1825	 1.1400000000e+002	 4.81546e-008
1826	 1.1406250000e+002	 4.02762e-008
1827	 1.1412500000e+002	 6.13453e-008
1828	 1.1418750000e+002	 5.74659e-008
1829	 1.1425000000e+002	 3.72011e-008
1830	 1.1431250000e+002	 5.51318e-008
1831	 1.1437500000e+002	 5.97227e-008
1832	 1.1443750000e+002	 4.40427e-008
1833	 1.1450000000e+002	 4.72651e-008
1834	 1.1456250000e+002	 5.63873e-008
1835	 1.1462500000e+002	 5.92068e-008
1836	 1.1468750000e+002	 4.59561e-008
1837	 1.1475000000e+002	 5.07961e-008
1838	 1.1481250000e+002	 5.92526e-008
1839	 1.1487500000e+002	 5.52818e-008
1840	 1.1493750000e+002	 5.01395e-008
1841	 1.1500000000e+002	 5.46748e-008
1842	 1.1506250000e+002	 5.52723e-008
1843	 1.1512500000e+002	 4.53217e-008
1844	 1.1518750000e+002	 5.62220e-008
1845	 1.1525000000e+002	 6.73327e-008
1846	 1.1531250000e+002	 6.08408e-008
1847	 1.1537500000e+002	 3.27054e-008
1848	 1.1543750000e+002	 5.79170e-008
1849	 1.1550000000e+002	 7.31229e-008
1850	 1.1556250000e+002	 4.24719e-008
1851	 1.1562500000e+002	 5.08170e-008
1852	 1.1568750000e+002	 4.98158e-008
1853	 1.1575000000e+002	 8.24818e-008
1854	 1.1581250000e+002	 4.56105e-008
1855	 1.1587500000e+002	 4.39994e-008
1856	 1.1593750000e+002	 5.68423e-008
1857	 1.1600000000e+002	 7.47809e-008
1858	 1.1606250000e+002	 5.27847e-008
1859	 1.1612500000e+002	 4.30468e-008
1860	 1.1618750000e+002	 5.21228e-008
1861	 1.1625000000e+002	 6.19752e-008
1862	 1.1631250000e+002	 6.90622e-008
1863	 1.1637500000e+002	 4.09776e-008
1864	 1.1643750000e+002	 5.38829e-008
1865	 1.1650000000e+002	 5.51526e-008
1866	 1.1656250000e+002	 7.01844e-008
1867	 1.1662500000e+002	 6.35759e-008
1868	 1.1668750000e+002	 4.09441e-008
1869	 1.1675000000e+002	 5.10357e-008
1870	 1.1681250000e+002	 6.67901e-008
1871	 1.1687500000e+002	 5.48074e-008
1872	 1.1693750000e+002	 6.01107e-008
1873	 1.1700000000e+002	 4.92901e-008
1874	 1.1706250000e+002	 5.86321e-008
1875	 1.1712500000e+002	 5.85555e-008
1876	 1.1718750000e+002	 4.81396e-008
1877	 1.1725000000e+002	 6.11682e-008
1878	 1.1731250000e+002	 4.75548e-008
1879	 1.1737500000e+002	 6.14173e-008
1880	 1.1743750000e+002	 5.76471e-008
1881	 1.1750000000e+002	 5.38082e-008
1882	 1.1756250000e+002	 5.32596e-008
1883	 1.1762500000e+002	 4.64288e-008
1884	 1.1768750000e+002	 5.80857e-008
1885	 1.1775000000e+002	 4.74444e-008
1886	 1.1781250000e+002	 6.42159e-008
1887	 1.1787500000e+002	 5.81845e-008
1888	 1.1793750000e+002	 4.18897e-008
1889	 1.1800000000e+002	 5.68421e-008
1890	 1.1806250000e+002	 5.67911e-008
1891	 1.1812500000e+002	 3.65314e-008
1892	 1.1818750000e+002	 5.00309e-008
1893	 1.1825000000e+002	 6.95403e-008
1894	 1.1831250000e+002	 5.53150e-008
1895	 1.1837500000e+002	 3.63379e-008
1896	 1.1843750000e+002	 4.84319e-008
1897	 1.1850000000e+002	 6.03382e-008
1898	 1.1856250000e+002	 4.21376e-008
1899	 1.1862500000e+002	 5.17054e-008
1900	 1.1868750000e+002	 4.98522e-008
1901	 1.1875000000e+002	 5.04191e-008
1902	 1.1881250000e+002	 5.66976e-008
1903	 1.1887500000e+002	 5.32293e-008
1904	 1.1893750000e+002	 3.93095e-008
1905	 1.1900000000e+002	 5.86888e-008
1906	 1.1906250000e+002	 5.16473e-008
1907	 1.1912500000e+002	 3.63481e-008
1908	 1.1918750000e+002	 6.48887e-008
1909	 1.1925000000e+002	 5.92778e-008
1910	 1.1931250000e+002	 4.22037e-008
1911	 1.1937500000e+002	 4.07195e-008
1912	 1.1943750000e+002	 5.37109e-008
1913	 1.1950000000e+002	 5.25846e-008
1914	 1.1956250000e+002	 4.29211e-008
1915	 1.1962500000e+002	 5.51049e-008
1916	 1.1968750000e+002	 3.70117e-008
1917	 1.1975000000e+002	 5.93256e-008
1918	 1.1981250000e+002	 5.26582e-008
1919	 1.1987500000e+002	 3.14819e-008
1920	 1.1993750000e+002	 5.35805e-008
1921	 1.2000000000e+002	 5.84203e-008
1922	 1.2006250000e+002	 4.38452e-008
1923	 1.2012500000e+002	 3.59199e-008
1924	 1.2018750000e+002	 5.68051e-008
1925	 1.2025000000e+002	 3.82613e-008
1926	 1.2031250000e+002	 5.38554e-008
1927	 1.2037500000e+002	 4.89059e-008
1928	 1.2043750000e+002	 3.19660e-008
1929	 1.2050000000e+002	 4.85528e-008
1930	 1.2056250000e+002	 4.88224e-008
1931	 1.2062500000e+002	 4.36691e-008
1932	 1.2068750000e+002	 3.98773e-008
1933	 1.2075000000e+002	 3.04468e-008
1934	 1.2081250000e+002	 5.68511e-008
1935	 1.2087500000e+002	 4.53214e-008
1936	 1.2093750000e+002	 3.47040e-008
1937	 1.2100000000e+002	 5.04888e-008
1938	 1.2106250000e+002	 3.64297e-008
1939	 1.2112500000e+002	 4.49661e-008
1940	 1.2118750000e+002	 4.84482e-008
1941	 1.2125000000e+002	 3.26004e-008
1942	 1.2131250000e+002	 5.03852e-008
1943	 1.2137500000e+002	 4.65802e-008
1944	 1.2143750000e+002	 3.49132e-008
1945	 1.2150000000e+002	 4.00166e-008
1946	 1.2156250000e+002	 4.75957e-008
1947	 1.2162500000e+002	 3.67640e-008
1948	 1.2168750000e+002	 3.78052e-008
1949	 1.2175000000e+002	 4.54648e-008
1950	 1.2181250000e+002	 5.09007e-008
1951	 1.2187500000e+002	 4.76316e-008
1952	 1.2193750000e+002	 3.26932e-008
1953	 1.2200000000e+002	 3.75274e-008
1954	 1.2206250000e+002	 4.57560e-008
1955	 1.2212500000e+002	 3.75243e-008
1956	 1.2218750000e+002	 3.45073e-008
1957	 1.2225000000e+002	 5.33137e-008
1958	 1.2231250000e+002	 4.24671e-008
1959	 1.2237500000e+002	 3.19956e-008
1960	 1.2243750000e+002	 4.10868e-008
1961	 1.2250000000e+002	 5.62003e-008
1962	 1.2256250000e+002	 3.35995e-008
1963	 1.2262500000e+002	 3.29016e-008
1964	 1.2268750000e+002	 4.50860e-008
1965	 1.2275000000e+002	 4.71259e-008
1966	 1.2281250000e+002	 4.18605e-008
1967	 1.2287500000e+002	 3.59985e-008
1968	 1.2293750000e+002	 3.87835e-008
1969	 1.2300000000e+002	 4.65859e-008
1970	 1.2306250000e+002	 3.63469e-008
1971	 1.2312500000e+002	 2.98427e-008
1972	 1.2318750000e+002	 4.69328e-008
1973	 1.2325000000e+002	 4.75706e-008
1974	 1.2331250000e+002	 3.80400e-008
1975	 1.2337500000e+002	 3.28267e-008
1976	 1.2343750000e+002	 5.47058e-008
1977	 1.2350000000e+002	 5.12509e-008
1978	 1.2356250000e+002	 2.57870e-008
1979	 1.2362500000e+002	 4.04541e-008
1980	 1.2368750000e+002	 5.15492e-008
1981	 1.2375000000e+002	 4.15985e-008
1982	 1.2381250000e+002	 3.94950e-008
1983	 1.2387500000e+002	 4.20442e-008
1984	 1.2393750000e+002	 5.17230e-008
1985	 1.2400000000e+002	 4.41221e-008
1986	 1.2406250000e+002	 3.82957e-008
1987	 1.2412500000e+002	 4.32937e-008
1988	 1.2418750000e+002	 4.54559e-008
1989	 1.2425000000e+002	 4.64506e-008
1990	 1.2431250000e+002	 3.31341e-008
1991	 1.2437500000e+002	 5.85201e-008
1992	 1.2443750000e+002	 5.24347e-008
1993	 1.2450000000e+002	 3.65055e-008
1994	 1.2456250000e+002	 5.39025e-008
1995	 1.2462500000e+002	 4.41668e-008
1996	 1.2468750000e+002	 3.29957e-008
1997	 1.2475000000e+002	 4.75773e-008
1998	 1.2481250000e+002	 7.73994e-008
1999	 1.2487500000e+002	 3.01841e-008
2000	 1.2493750000e+002	 4.58835e-008
2001	 1.2500000000e+002	 1.02060e-007
2002	 1.2506250000e+002	 3.62577e-008
2003	 1.2512500000e+002	 3.10350e-008
2004	 1.2518750000e+002	 5.54254e-008
2005	 1.2525000000e+002	 5.02876e-008
2006	 1.2531250000e+002	 4.29577e-008
2007	 1.2537500000e+002	 2.82674e-008
2008	 1.2543750000e+002	 5.78623e-008
2009	 1.2550000000e+002	 7.19042e-008
2010	 1.2556250000e+002	 4.12289e-008
2011	 1.2562500000e+002	 3.89216e-008
2012	 1.2568750000e+002	 4.51921e-008
2013	 1.2575000000e+002	 4.57452e-008
2014	 1.2581250000e+002	 5.48474e-008
2015	 1.2587500000e+002	 3.64321e-008
2016	 1.2593750000e+002	 4.42883e-008
2017	 1.2600000000e+002	 5.98256e-008
2018	 1.2606250000e+002	 3.75890e-008
2019	 1.2612500000e+002	 5.75346e-008
2020	 1.2618750000e+002	 4.74488e-008
2021	 1.2625000000e+002	 3.38168e-008
2022	 1.2631250000e+002	 5.27976e-008
2023	 1.2637500000e+002	 5.77967e-008
2024	 1.2643750000e+002	 4.59626e-008
2025	 1.2650000000e+002	 4.58337e-008
2026	 1.2656250000e+002	 4.87456e-008
2027	 1.2662500000e+002	 4.94481e-008
2028	 1.2668750000e+002	 3.16309e-008
2029	 1.2675000000e+002	 5.58665e-008
2030	 1.2681250000e+002	 6.43959e-008
2031	 1.2687500000e+002	 3.24143e-008
2032	 1.2693750000e+002	 4.22049e-008
2033	 1.2700000000e+002	 6.71598e-008
2034	 1.2706250000e+002	 3.50715e-008
2035	 1.2712500000e+002	 6.08336e-008
2036	 1.2718750000e+002	 3.31936e-008
2037	 1.2725000000e+002	 4.44327e-008
2038	 1.2731250000e+002	 5.51765e-008
2039	 1.2737500000e+002	 3.90172e-008
2040	 1.2743750000e+002	 5.76375e-008
2041	 1.2750000000e+002	 4.23735e-008
2042	 1.2756250000e+002	 3.95344e-008
2043	 1.2762500000e+002	 5.95683e-008
2044	 1.2768750000e+002	 3.42424e-008
2045	 1.2775000000e+002	 4.64913e-008
2046	 1.2781250000e+002	 4.71566e-008
2047	 1.2787500000e+002	 4.80398e-008
2048	 1.2793750000e+002	 3.54431e-008
2049	 1.2800000000e+002	 4.79788e-008
2050	 1.2806250000e+002	 6.18700e-008
2051	 1.2812500000e+002	 3.96068e-008
2052	 1.2818750000e+002	 4.44558e-008
2053	 1.2825000000e+002	 4.18384e-008
2054	 1.2831250000e+002	 4.74953e-008
2055	 1.2837500000e+002	 5.26641e-008
2056	 1.2843750000e+002	 4.42176e-008
2057	 1.2850000000e+002	 3.17190e-008
2058	 1.2856250000e+002	 4.81783e-008
2059	 1.2862500000e+002	 4.49037e-008
2060	 1.2868750000e+002	 4.96585e-008
2061	 1.2875000000e+002	 4.12770e-008
2062	 1.2881250000e+002	 4.28814e-008
2063	 1.2887500000e+002	 3.85188e-008
2064	 1.2893750000e+002	 4.85304e-008
2065	 1.2900000000e+002	 5.04142e-008
2066	 1.2906250000e+002	 3.95723e-008
2067	 1.2912500000e+002	 3.85908e-008
2068	 1.2918750000e+002	 4.25574e-008
2069	 1.2925000000e+002	 5.52498e-008
2070	 1.2931250000e+002	 4.01195e-008
2071	 1.2937500000e+002	 3.20003e-008
2072	 1.2943750000e+002	 5.73069e-008
2073	 1.2950000000e+002	 4.65522e-008
2074	 1.2956250000e+002	 2.42005e-008
2075	 1.2962500000e+002	 4.48718e-008
2076	 1.2968750000e+002	 4.65607e-008
2077	 1.2975000000e+002	 4.20675e-008
2078	 1.2981250000e+002	 3.67756e-008
2079	 1.2987500000e+002	 3.50286e-008
2080	 1.2993750000e+002	 4.31490e-008
2081	 1.3000000000e+002	 3.94622e-008
2082	 1.3006250000e+002	 3.76099e-008
2083	 1.3012500000e+002	 3.92583e-008
2084	 1.3018750000e+002	 4.08518e-008
2085	 1.3025000000e+002	 2.77947e-008
2086	 1.3031250000e+002	 4.45809e-008
2087	 1.3037500000e+002	 4.07678e-008
2088	 1.3043750000e+002	 2.78047e-008
2089	 1.3050000000e+002	 4.34309e-008
2090	 1.3056250000e+002	 3.23526e-008
2091	 1.3062500000e+002	 3.11884e-008
2092	 1.3068750000e+002	 4.50675e-008
2093	 1.3075000000e+002	 4.07404e-008
2094	 1.3081250000e+002	 2.03023e-008
2095	 1.3087500000e+002	 3.16319e-008
2096	 1.3093750000e+002	 4.36911e-008
2097	 1.3100000000e+002	 3.39328e-008
2098	 1.3106250000e+002	 2.81871e-008
2099	 1.3112500000e+002	 4.34834e-008
2100	 1.3118750000e+002	 3.27132e-008
2101	 1.3125000000e+002	 3.02152e-008
2102	 1.3131250000e+002	 4.60144e-008
2103	 1.3137500000e+002	 2.48474e-008
2104	 1.3143750000e+002	 3.10635e-008
2105	 1.3150000000e+002	 4.31327e-008
2106	 1.3156250000e+002	 3.28334e-008
2107	 1.3162500000e+002	 2.87253e-008
2108	 1.3168750000e+002	 3.83808e-008
2109	 1.3175000000e+002	 5.48383e-008
2110	 1.3181250000e+002	 3.22027e-008
2111	 1.3187500000e+002	 2.28721e-008
2112	 1.3193750000e+002	 4.81798e-008
2113	 1.3200000000e+002	 3.85125e-008
2114	 1.3206250000e+002	 3.29408e-008
2115	 1.3212500000e+002	 4.48378e-008
2116	 1.3218750000e+002	 2.73302e-008
2117	 1.3225000000e+002	 3.59141e-008
2118	 1.3231250000e+002	 6.13174e-008
2119	 1.3237500000e+002	 2.86854e-008
2120	 1.3243750000e+002	 3.46098e-008
2121	 1.3250000000e+002	 5.04458e-008
2122	 1.3256250000e+002	 3.47864e-008
2123	 1.3262500000e+002	 4.22780e-008
2124	 1.3268750000e+002	 3.37203e-008
2125	 1.3275000000e+002	 4.12480e-008
2126	 1.3281250000e+002	 4.09594e-008
2127	 1.3287500000e+002	 3.94843e-008
2128	 1.3293750000e+002	 3.90762e-008
2129	 1.3300000000e+002	 4.76594e-008
2130	 1.3306250000e+002	 4.59531e-008
2131	 1.3312500000e+002	 3.04293e-008
2132	 1.3318750000e+002	 4.26444e-008
2133	 1.3325000000e+002	 3.58977e-008
2134	 1.3331250000e+002	 4.74205e-008
2135	 1.3337500000e+002	 3.39544e-008
2136	 1.3343750000e+002	 4.33938e-008
2137	 1.3350000000e+002	 3.17447e-008
2138	 1.3356250000e+002	 4.29103e-008
2139	 1.3362500000e+002	 4.46057e-008
2140	 1.3368750000e+002	 3.57701e-008
2141	 1.3375000000e+002	 3.61107e-008
2142	 1.3381250000e+002	 3.70395e-008
2143	 1.3387500000e+002	 5.08688e-008
2144	 1.3393750000e+002	 3.13281e-008
2145	 1.3400000000e+002	 3.43417e-008
2146	 1.3406250000e+002	 4.99635e-008
2147	 1.3412500000e+002	 3.71678e-008
2148	 1.3418750000e+002	 2.65431e-008
2149	 1.3425000000e+002	 4.32589e-008
2150	 1.3431250000e+002	 4.33551e-008
2151	 1.3437500000e+002	 3.73487e-008
2152	 1.3443750000e+002	 3.49994e-008
2153	 1.3450000000e+002	 3.67897e-008
2154	 1.3456250000e+002	 3.57520e-008
2155	 1.3462500000e+002	 5.00757e-008
2156	 1.3468750000e+002	 3.47307e-008
2157	 1.3475000000e+002	 3.50494e-008
2158	 1.3481250000e+002	 4.36912e-008
2159	 1.3487500000e+002	 4.03512e-008
2160	 1.3493750000e+002	 3.36549e-008
2161	 1.3500000000e+002	 4.39459e-008
2162	 1.3506250000e+002	 4.77573e-008
2163	 1.3512500000e+002	 3.86811e-008
2164	 1.3518750000e+002	 3.79042e-008
2165	 1.3525000000e+002	 4.30801e-008
2166	 1.3531250000e+002	 4.78975e-008
2167	 1.3537500000e+002	 3.54098e-008
2168	 1.3543750000e+002	 3.39753e-008
2169	 1.3550000000e+002	 4.88082e-008
2170	 1.3556250000e+002	 4.16195e-008
2171	 1.3562500000e+002	 3.63948e-008
2172	 1.3568750000e+002	 5.81480e-008
2173	 1.3575000000e+002	 3.67703e-008
2174	 1.3581250000e+002	 3.35846e-008
2175	 1.3587500000e+002	 3.87642e-008
2176	 1.3593750000e+002	 3.98644e-008
2177	 1.3600000000e+002	 4.70142e-008
2178	 1.3606250000e+002	 4.00615e-008
2179	 1.3612500000e+002	 4.63249e-008
2180	 1.3618750000e+002	 4.54749e-008
2181	 1.3625000000e+002	 4.49399e-008
2182	 1.3631250000e+002	 3.42020e-008
2183	 1.3637500000e+002	 4.33253e-008
2184	 1.3643750000e+002	 4.04240e-008
2185	 1.3650000000e+002	 4.74659e-008
2186	 1.3656250000e+002	 4.14081e-008
2187	 1.3662500000e+002	 3.90004e-008
2188	 1.3668750000e+002	 4.00419e-008
2189	 1.3675000000e+002	 5.10365e-008
2190	 1.3681250000e+002	 4.24366e-008
2191	 1.3687500000e+002	 4.67962e-008
2192	 1.3693750000e+002	 5.42789e-008
2193	 1.3700000000e+002	 3.99573e-008
2194	 1.3706250000e+002	 4.27957e-008
2195	 1.3712500000e+002	 4.95835e-008
2196	 1.3718750000e+002	 4.50335e-008
2197	 1.3725000000e+002	 3.63878e-008
2198	 1.3731250000e+002	 5.03826e-008
2199	 1.3737500000e+002	 4.80611e-008
2200	 1.3743750000e+002	 4.24717e-008
2201	 1.3750000000e+002	 4.45499e-008
2202	 1.3756250000e+002	 4.71129e-008
2203	 1.3762500000e+002	 3.61832e-008
2204	 1.3768750000e+002	 4.27689e-008
2205	 1.3775000000e+002	 5.29384e-008
2206	 1.3781250000e+002	 4.65646e-008
2207	 1.3787500000e+002	 2.91540e-008
2208	 1.3793750000e+002	 4.48427e-008
2209	 1.3800000000e+002	 4.18221e-008
2210	 1.3806250000e+002	 3.64746e-008
2211	 1.3812500000e+002	 3.53650e-008
2212	 1.3818750000e+002	 4.58413e-008
2213	 1.3825000000e+002	 2.79254e-008
2214	 1.3831250000e+002	 4.26036e-008
2215	 1.3837500000e+002	 3.35710e-008
2216	 1.3843750000e+002	 4.20734e-008
2217	 1.3850000000e+002	 3.67427e-008
2218	 1.3856250000e+002	 2.58859e-008
2219	 1.3862500000e+002	 2.93528e-008
2220	 1.3868750000e+002	 4.41354e-008
2221	 1.3875000000e+002	 4.13051e-008
2222	 1.3881250000e+002	 2.53574e-008
2223	 1.3887500000e+002	 2.72386e-008
2224	 1.3893750000e+002	 4.55055e-008
2225	 1.3900000000e+002	 3.87543e-008
2226	 1.3906250000e+002	 2.96932e-008
2227	 1.3912500000e+002	 2.26381e-008
2228	 1.3918750000e+002	 3.67469e-008
2229	 1.3925000000e+002	 3.78045e-008
2230	 1.3931250000e+002	 2.67533e-008
2231	 1.3937500000e+002	 3.14399e-008
2232	 1.3943750000e+002	 3.12678e-008
2233	 1.3950000000e+002	 3.99963e-008
2234	 1.3956250000e+002	 2.49324e-008
2235	 1.3962500000e+002	 4.00411e-008
2236	 1.3968750000e+002	 2.55375e-008
2237	 1.3975000000e+002	 3.81402e-008
2238	 1.3981250000e+002	 3.16503e-008
2239	 1.3987500000e+002	 3.06530e-008
2240	 1.3993750000e+002	 2.69233e-008
2241	 1.4000000000e+002	 3.50693e-008
2242	 1.4006250000e+002	 4.42047e-008
2243	 1.4012500000e+002	 3.93330e-008
2244	 1.4018750000e+002	 1.85034e-008
2245	 1.4025000000e+002	 4.34350e-008
2246	 1.4031250000e+002	 3.85739e-008
2247	 1.4037500000e+002	 2.82350e-008
2248	 1.4043750000e+002	 2.78874e-008
2249	 1.4050000000e+002	 3.42218e-008
2250	 1.4056250000e+002	 3.27407e-008
2251	 1.4062500000e+002	 3.34195e-008
2252	 1.4068750000e+002	 2.96779e-008
2253	 1.4075000000e+002	 3.35994e-008
2254	 1.4081250000e+002	 3.25216e-008
2255	 1.4087500000e+002	 2.21880e-008
2256	 1.4093750000e+002	 3.68142e-008
2257	 1.4100000000e+002	 2.65291e-008
2258	 1.4106250000e+002	 3.07961e-008
2259	 1.4112500000e+002	 3.15112e-008
2260	 1.4118750000e+002	 2.72270e-008
2261	 1.4125000000e+002	 3.10633e-008
2262	 1.4131250000e+002	 2.96008e-008
2263	 1.4137500000e+002	 3.23088e-008
2264	 1.4143750000e+002	 2.15137e-008
2265	 1.4150000000e+002	 3.21490e-008
2266	 1.4156250000e+002	 4.64311e-008
2267	 1.4162500000e+002	 1.99239e-008
2268	 1.4168750000e+002	 3.93803e-008
2269	 1.4175000000e+002	 3.88148e-008
2270	 1.4181250000e+002	 2.33734e-008
2271	 1.4187500000e+002	 2.97557e-008
2272	 1.4193750000e+002	 2.45312e-008
2273	 1.4200000000e+002	 3.89924e-008
2274	 1.4206250000e+002	 4.42481e-008
2275	 1.4212500000e+002	 2.26766e-008
2276	 1.4218750000e+002	 4.06050e-008
2277	 1.4225000000e+002	 3.61170e-008
2278	 1.4231250000e+002	 3.35371e-008
2279	 1.4237500000e+002	 3.66496e-008
2280	 1.4243750000e+002	 3.44476e-008
2281	 1.4250000000e+002	 3.11646e-008
2282	 1.4256250000e+002	 2.76059e-008
2283	 1.4262500000e+002	 5.00011e-008
2284	 1.4268750000e+002	 4.18085e-008
2285	 1.4275000000e+002	 3.02110e-008
2286	 1.4281250000e+002	 2.65783e-008
2287	 1.4287500000e+002	 4.18701e-008
2288	 1.4293750000e+002	 4.08702e-008
2289	 1.4300000000e+002	 1.61796e-008
2290	 1.4306250000e+002	 4.17799e-008
2291	 1.4312500000e+002	 3.85971e-008
2292	 1.4318750000e+002	 2.47040e-008
2293	 1.4325000000e+002	 3.14408e-008
2294	 1.4331250000e+002	 3.39432e-008
2295	 1.4337500000e+002	 3.21242e-008
2296	 1.4343750000e+002	 3.06977e-008
2297	 1.4350000000e+002	 4.02418e-008
2298	 1.4356250000e+002	 3.04022e-008
2299	 1.4362500000e+002	 3.02890e-008
2300	 1.4368750000e+002	 4.11311e-008
2301	 1.4375000000e+002	 3.39675e-008
2302	 1.4381250000e+002	 2.15421e-008
2303	 1.4387500000e+002	 3.88737e-008
2304	 1.4393750000e+002	 4.58681e-008
2305	 1.4400000000e+002	 3.87816e-008
2306	 1.4406250000e+002	 2.16252e-008
2307	 1.4412500000e+002	 4.70404e-008
2308	 1.4418750000e+002	 3.50391e-008
2309	 1.4425000000e+002	 3.90869e-008
2310	 1.4431250000e+002	 3.41569e-008
2311	 1.4437500000e+002	 3.07486e-008
2312	 1.4443750000e+002	 4.08876e-008
2313	 1.4450000000e+002	 3.78578e-008
2314	 1.4456250000e+002	 4.12320e-008
2315	 1.4462500000e+002	 3.64598e-008
2316	 1.4468750000e+002	 4.43940e-008
2317	 1.4475000000e+002	 4.25700e-008
2318	 1.4481250000e+002	 4.22055e-008
2319	 1.4487500000e+002	 3.55572e-008
2320	 1.4493750000e+002	 4.46200e-008
2321	 1.4500000000e+002	 3.51908e-008
2322	 1.4506250000e+002	 4.46393e-008
2323	 1.4512500000e+002	 3.24499e-008
2324	 1.4518750000e+002	 5.10094e-008
2325	 1.4525000000e+002	 4.76690e-008
2326	 1.4531250000e+002	 2.72286e-008
2327	 1.4537500000e+002	 3.93916e-008
2328	 1.4543750000e+002	 4.33187e-008
2329	 1.4550000000e+002	 2.69778e-008
2330	 1.4556250000e+002	 4.21550e-008
2331	 1.4562500000e+002	 4.49460e-008
2332	 1.4568750000e+002	 3.87320e-008
2333	 1.4575000000e+002	 3.39510e-008
2334	 1.4581250000e+002	 4.16442e-008
2335	 1.4587500000e+002	 3.61549e-008
2336	 1.4593750000e+002	 3.32650e-008
2337	 1.4600000000e+002	 4.36893e-008
2338	 1.4606250000e+002	 4.35618e-008
2339	 1.4612500000e+002	 2.40605e-008
2340	 1.4618750000e+002	 4.47272e-008
2341	 1.4625000000e+002	 4.89067e-008
2342	 1.4631250000e+002	 2.76711e-008
2343	 1.4637500000e+002	 4.41941e-008
2344	 1.4643750000e+002	 3.33145e-008
2345	 1.4650000000e+002	 3.06640e-008
2346	 1.4656250000e+002	 3.84816e-008
2347	 1.4662500000e+002	 3.71992e-008
2348	 1.4668750000e+002	 4.13709e-008
2349	 1.4675000000e+002	 3.23433e-008
2350	 1.4681250000e+002	 4.07145e-008
2351	 1.4687500000e+002	 4.83514e-008
2352	 1.4693750000e+002	 3.17859e-008
2353	 1.4700000000e+002	 3.17778e-008
2354	 1.4706250000e+002	 5.32747e-008
2355	 1.4712500000e+002	 4.09089e-008
2356	 1.4718750000e+002	 2.78476e-008
2357	 1.4725000000e+002	 3.64488e-008
2358	 1.4731250000e+002	 5.44948e-008
2359	 1.4737500000e+002	 3.63870e-008
2360	 1.4743750000e+002	 2.97172e-008
2361	 1.4750000000e+002	 4.87013e-008
2362	 1.4756250000e+002	 4.28580e-008
2363	 1.4762500000e+002	 2.24006e-008
2364	 1.4768750000e+002	 3.52825e-008
2365	 1.4775000000e+002	 5.12079e-008
2366	 1.4781250000e+002	 2.91961e-008
2367	 1.4787500000e+002	 3.20358e-008
2368	 1.4793750000e+002	 3.98707e-008
2369	 1.4800000000e+002	 4.11742e-008
2370	 1.4806250000e+002	 1.93908e-008
2371	 1.4812500000e+002	 4.26820e-008
2372	 1.4818750000e+002	 3.34079e-008
2373	 1.4825000000e+002	 2.59535e-008
2374	 1.4831250000e+002	 4.71142e-008
2375	 1.4837500000e+002	 3.06649e-008
2376	 1.4843750000e+002	 2.46352e-008
2377	 1.4850000000e+002	 3.86912e-008
2378	 1.4856250000e+002	 3.62376e-008
2379	 1.4862500000e+002	 2.28361e-008
2380	 1.4868750000e+002	 3.03298e-008
2381	 1.4875000000e+002	 3.80616e-008
2382	 1.4881250000e+002	 3.12797e-008
2383	 1.4887500000e+002	 2.62435e-008
2384	 1.4893750000e+002	 4.03540e-008
2385	 1.4900000000e+002	 2.76523e-008
2386	 1.4906250000e+002	 1.89426e-008
2387	 1.4912500000e+002	 3.76513e-008
2388	 1.4918750000e+002	 3.76937e-008
2389	 1.4925000000e+002	 2.50771e-008
2390	 1.4931250000e+002	 3.43591e-008
2391	 1.4937500000e+002	 4.26098e-008
2392	 1.4943750000e+002	 2.00519e-008
2393	 1.4950000000e+002	 2.89941e-008
2394	 1.4956250000e+002	 3.79516e-008
2395	 1.4962500000e+002	 2.79613e-008
2396	 1.4968750000e+002	 2.67725e-008
2397	 1.4975000000e+002	 3.48882e-008
2398	 1.4981250000e+002	 2.76662e-008
2399	 1.4987500000e+002	 2.14598e-008
2400	 1.4993750000e+002	 5.56087e-008
2401	 1.5000000000e+002	 1.60017e-008
2402	 1.5006250000e+002	 2.29589e-008
2403	 1.5012500000e+002	 4.51436e-008
2404	 1.5018750000e+002	 1.97455e-008
2405	 1.5025000000e+002	 2.27658e-008
2406	 1.5031250000e+002	 2.30675e-008
2407	 1.5037500000e+002	 3.36644e-008
2408	 1.5043750000e+002	 2.41888e-008
2409	 1.5050000000e+002	 1.58946e-008
2410	 1.5056250000e+002	 4.29311e-008
2411	 1.5062500000e+002	 2.34320e-008
2412	 1.5068750000e+002	 2.59318e-008
2413	 1.5075000000e+002	 2.84885e-008
2414	 1.5081250000e+002	 2.88643e-008
2415	 1.5087500000e+002	 2.39139e-008
2416	 1.5093750000e+002	 2.77490e-008
2417	 1.5100000000e+002	 3.58598e-008
2418	 1.5106250000e+002	 1.50958e-008
2419	 1.5112500000e+002	 2.42594e-008
2420	 1.5118750000e+002	 3.17950e-008
2421	 1.5125000000e+002	 3.72760e-008
2422	 1.5131250000e+002	 1.84315e-008
2423	 1.5137500000e+002	 2.54799e-008
2424	 1.5143750000e+002	 3.38426e-008
2425	 1.5150000000e+002	 3.22927e-008
2426	 1.5156250000e+002	 3.05734e-008
2427	 1.5162500000e+002	 2.47920e-008
2428	 1.5168750000e+002	 3.82660e-008
2429	 1.5175000000e+002	 2.54188e-008
2430	 1.5181250000e+002	 4.05844e-008
2431	 1.5187500000e+002	 4.04298e-008
2432	 1.5193750000e+002	 2.44259e-008
2433	 1.5200000000e+002	 3.04477e-008
2434	 1.5206250000e+002	 4.62925e-008
2435	 1.5212500000e+002	 2.57741e-008
2436	 1.5218750000e+002	 3.14055e-008
2437	 1.5225000000e+002	 3.57468e-008
2438	 1.5231250000e+002	 2.75375e-008
2439	 1.5237500000e+002	 2.91192e-008
2440	 1.5243750000e+002	 4.06069e-008
2441	 1.5250000000e+002	 3.61270e-008
2442	 1.5256250000e+002	 2.36389e-008
2443	 1.5262500000e+002	 3.84102e-008
2444	 1.5268750000e+002	 3.65487e-008
2445	 1.5275000000e+002	 3.72737e-008
2446	 1.5281250000e+002	 2.49085e-008
2447	 1.5287500000e+002	 4.52849e-008
2448	 1.5293750000e+002	 2.62696e-008
2449	 1.5300000000e+002	 3.86254e-008
2450	 1.5306250000e+002	 4.40363e-008
2451	 1.5312500000e+002	 2.64301e-008
2452	 1.5318750000e+002	 3.57814e-008
2453	 1.5325000000e+002	 3.66388e-008
2454	 1.5331250000e+002	 3.28817e-008
2455	 1.5337500000e+002	 2.95538e-008
2456	 1.5343750000e+002	 3.43741e-008
2457	 1.5350000000e+002	 4.50106e-008
2458	 1.5356250000e+002	 2.77686e-008
2459	 1.5362500000e+002	 3.26190e-008
2460	 1.5368750000e+002	 4.28360e-008
2461	 1.5375000000e+002	 3.17848e-008
2462	 1.5381250000e+002	 2.51354e-008
2463	 1.5387500000e+002	 4.28657e-008
2464	 1.5393750000e+002	 2.90829e-008
2465	 1.5400000000e+002	 3.80388e-008
2466	 1.5406250000e+002	 2.94047e-008
2467	 1.5412500000e+002	 3.88297e-008
2468	 1.5418750000e+002	 2.58572e-008
2469	 1.5425000000e+002	 4.25151e-008
2470	 1.5431250000e+002	 3.38927e-008
2471	 1.5437500000e+002	 3.14282e-008
2472	 1.5443750000e+002	 3.23935e-008
2473	 1.5450000000e+002	 3.88369e-008
2474	 1.5456250000e+002	 4.75673e-008
2475	 1.5462500000e+002	 1.90845e-008
2476	 1.5468750000e+002	 3.66497e-008
2477	 1.5475000000e+002	 4.12550e-008
2478	 1.5481250000e+002	 3.19195e-008
2479	 1.5487500000e+002	 3.05797e-008
2480	 1.5493750000e+002	 4.27060e-008
2481	 1.5500000000e+002	 2.71971e-008
2482	 1.5506250000e+002	 3.84219e-008
2483	 1.5512500000e+002	 3.52499e-008
2484	 1.5518750000e+002	 3.33092e-008
2485	 1.5525000000e+002	 3.26466e-008
2486	 1.5531250000e+002	 3.41641e-008
2487	 1.5537500000e+002	 4.17283e-008
2488	 1.5543750000e+002	 3.54405e-008
2489	 1.5550000000e+002	 3.84517e-008
2490	 1.5556250000e+002	 4.12128e-008
2491	 1.5562500000e+002	 3.17402e-008
2492	 1.5568750000e+002	 3.47079e-008
2493	 1.5575000000e+002	 3.90191e-008
2494	 1.5581250000e+002	 3.66903e-008
2495	 1.5587500000e+002	 3.45186e-008
2496	 1.5593750000e+002	 2.96276e-008
2497	 1.5600000000e+002	 3.29051e-008
2498	 1.5606250000e+002	 3.75172e-008
2499	 1.5612500000e+002	 3.66257e-008
2500	 1.5618750000e+002	 4.06073e-008
2501	 1.5625000000e+002	 2.64463e-008
2502	 1.5631250000e+002	 3.63569e-008
2503	 1.5637500000e+002	 3.71625e-008
2504	 1.5643750000e+002	 3.75735e-008
2505	 1.5650000000e+002	 3.01619e-008
2506	 1.5656250000e+002	 3.12820e-008
2507	 1.5662500000e+002	 3.64012e-008
2508	 1.5668750000e+002	 3.40969e-008
2509	 1.5675000000e+002	 3.01567e-008
2510	 1.5681250000e+002	 3.40373e-008
2511	 1.5687500000e+002	 3.50972e-008
2512	 1.5693750000e+002	 3.03085e-008
2513	 1.5700000000e+002	 2.73850e-008
2514	 1.5706250000e+002	 3.83614e-008
2515	 1.5712500000e+002	 2.27522e-008
2516	 1.5718750000e+002	 3.33540e-008
2517	 1.5725000000e+002	 3.21630e-008
2518	 1.5731250000e+002	 3.81587e-008
2519	 1.5737500000e+002	 2.44220e-008
2520	 1.5743750000e+002	 4.26075e-008
2521	 1.5750000000e+002	 2.75041e-008
2522	 1.5756250000e+002	 2.84466e-008
2523	 1.5762500000e+002	 2.90454e-008
2524	 1.5768750000e+002	 3.98114e-008
2525	 1.5775000000e+002	 2.68548e-008
2526	 1.5781250000e+002	 2.38662e-008
2527	 1.5787500000e+002	 3.38011e-008
2528	 1.5793750000e+002	 2.32459e-008
2529	 1.5800000000e+002	 3.54961e-008
2530	 1.5806250000e+002	 3.02595e-008
2531	 1.5812500000e+002	 2.29334e-008
2532	 1.5818750000e+002	 2.58285e-008
2533	 1.5825000000e+002	 3.17302e-008
2534	 1.5831250000e+002	 2.11934e-008
2535	 1.5837500000e+002	 2.49575e-008
2536	 1.5843750000e+002	 3.41964e-008
2537	 1.5850000000e+002	 1.63959e-008
2538	 1.5856250000e+002	 2.66305e-008
2539	 1.5862500000e+002	 2.62370e-008
2540	 1.5868750000e+002	 2.87772e-008
2541	 1.5875000000e+002	 2.01570e-008
2542	 1.5881250000e+002	 1.82558e-008
2543	 1.5887500000e+002	 2.53148e-008
2544	 1.5893750000e+002	 2.18897e-008
2545	 1.5900000000e+002	 2.03411e-008
2546	 1.5906250000e+002	 2.59565e-008
2547	 1.5912500000e+002	 2.38433e-008
2548	 1.5918750000e+002	 2.19126e-008
2549	 1.5925000000e+002	 2.14914e-008
2550	 1.5931250000e+002	 2.53927e-008
2551	 1.5937500000e+002	 2.31978e-008
2552	 1.5943750000e+002	 2.16035e-008
2553	 1.5950000000e+002	 2.68290e-008
2554	 1.5956250000e+002	 1.96522e-008
2555	 1.5962500000e+002	 2.49259e-008
2556	 1.5968750000e+002	 2.72040e-008
2557	 1.5975000000e+002	 2.51630e-008
2558	 1.5981250000e+002	 1.52805e-008
2559	 1.5987500000e+002	 3.62914e-008
2560	 1.5993750000e+002	 2.33759e-008
2561	 1.6000000000e+002	 3.48249e-008
2562	 1.6006250000e+002	 3.04010e-008
2563	 1.6012500000e+002	 1.70347e-008
2564	 1.6018750000e+002	 3.79228e-008
2565	 1.6025000000e+002	 3.71348e-008
2566	 1.6031250000e+002	 2.34624e-008
2567	 1.6037500000e+002	 2.50402e-008
2568	 1.6043750000e+002	 2.86996e-008
2569	 1.6050000000e+002	 3.24695e-008
2570	 1.6056250000e+002	 1.86074e-008
2571	 1.6062500000e+002	 3.34666e-008
2572	 1.6068750000e+002	 3.27034e-008
2573	 1.6075000000e+002	 2.65373e-008
2574	 1.6081250000e+002	 2.51712e-008
2575	 1.6087500000e+002	 2.23032e-008
2576	 1.6093750000e+002	 2.40094e-008
2577	 1.6100000000e+002	 2.05481e-008
2578	 1.6106250000e+002	 3.00256e-008
2579	 1.6112500000e+002	 2.77746e-008
2580	 1.6118750000e+002	 1.51495e-008
2581	 1.6125000000e+002	 3.10665e-008
2582	 1.6131250000e+002	 3.31783e-008
2583	 1.6137500000e+002	 1.82004e-008
2584	 1.6143750000e+002	 2.09694e-008
2585	 1.6150000000e+002	 3.15408e-008
2586	 1.6156250000e+002	 1.78289e-008
2587	 1.6162500000e+002	 2.30286e-008
2588	 1.6168750000e+002	 2.78171e-008
2589	 1.6175000000e+002	 2.53992e-008
2590	 1.6181250000e+002	 2.40257e-008
2591	 1.6187500000e+002	 3.30889e-008
2592	 1.6193750000e+002	 2.66874e-008
2593	 1.6200000000e+002	 2.29043e-008
2594	 1.6206250000e+002	 2.87477e-008
2595	 1.6212500000e+002	 3.78000e-008
2596	 1.6218750000e+002	 2.35496e-008
2597	 1.6225000000e+002	 3.20066e-008
2598	 1.6231250000e+002	 3.69994e-008
2599	 1.6237500000e+002	 2.87377e-008
2600	 1.6243750000e+002	 2.75526e-008
2601	 1.6250000000e+002	 3.58654e-008
2602	 1.6256250000e+002	 3.75960e-008
2603	 1.6262500000e+002	 2.92174e-008
2604	 1.6268750000e+002	 3.66679e-008
2605	 1.6275000000e+002	 3.65325e-008
2606	 1.6281250000e+002	 3.07027e-008
2607	 1.6287500000e+002	 2.74670e-008
2608	 1.6293750000e+002	 3.74854e-008
2609	 1.6300000000e+002	 3.47048e-008
2610	 1.6306250000e+002	 2.98309e-008
2611	 1.6312500000e+002	 3.48496e-008
2612	 1.6318750000e+002	 3.13341e-008
2613	 1.6325000000e+002	 4.76634e-008
2614	 1.6331250000e+002	 2.56169e-008
2615	 1.6337500000e+002	 3.82333e-008
2616	 1.6343750000e+002	 3.55738e-008
2617	 1.6350000000e+002	 2.57890e-008
2618	 1.6356250000e+002	 3.13390e-008
2619	 1.6362500000e+002	 3.68812e-008
2620	 1.6368750000e+002	 4.03350e-008
2621	 1.6375000000e+002	 3.38931e-008
2622	 1.6381250000e+002	 3.01536e-008
2623	 1.6387500000e+002	 3.83950e-008
2624	 1.6393750000e+002	 2.90899e-008
2625	 1.6400000000e+002	 3.92297e-008
2626	 1.6406250000e+002	 2.67080e-008
2627	 1.6412500000e+002	 3.25779e-008
2628	 1.6418750000e+002	 2.95659e-008
2629	 1.6425000000e+002	 4.56517e-008
2630	 1.6431250000e+002	 2.45958e-008
2631	 1.6437500000e+002	 3.45715e-008
2632	 1.6443750000e+002	 3.73138e-008
2633	 1.6450000000e+002	 3.94024e-008
2634	 1.6456250000e+002	 3.47119e-008
2635	 1.6462500000e+002	 3.66429e-008
2636	 1.6468750000e+002	 3.32485e-008
2637	 1.6475000000e+002	 3.77545e-008
2638	 1.6481250000e+002	 3.07732e-008
2639	 1.6487500000e+002	 4.00725e-008
2640	 1.6493750000e+002	 4.11591e-008
2641	 1.6500000000e+002	 3.67063e-008
2642	 1.6506250000e+002	 3.10043e-008
2643	 1.6512500000e+002	 3.59804e-008
2644	 1.6518750000e+002	 4.16045e-008
2645	 1.6525000000e+002	 2.53470e-008
2646	 1.6531250000e+002	 3.83105e-008
2647	 1.6537500000e+002	 2.42818e-008
2648	 1.6543750000e+002	 5.15561e-008
2649	 1.6550000000e+002	 2.26732e-008
2650	 1.6556250000e+002	 3.84598e-008
2651	 1.6562500000e+002	 2.57246e-008
2652	 1.6568750000e+002	 3.07801e-008
2653	 1.6575000000e+002	 3.20625e-008
2654	 1.6581250000e+002	 2.86525e-008
2655	 1.6587500000e+002	 3.30693e-008
2656	 1.6593750000e+002	 2.82257e-008
2657	 1.6600000000e+002	 2.89395e-008
2658	 1.6606250000e+002	 2.35775e-008
2659	 1.6612500000e+002	 2.67447e-008
2660	 1.6618750000e+002	 2.21619e-008
2661	 1.6625000000e+002	 3.42838e-008
2662	 1.6631250000e+002	 2.99631e-008
2663	 1.6637500000e+002	 2.07715e-008
2664	 1.6643750000e+002	 2.67574e-008
2665	 1.6650000000e+002	 3.19258e-008
2666	 1.6656250000e+002	 2.81741e-008
2667	 1.6662500000e+002	 2.32266e-008
2668	 1.6668750000e+002	 2.32799e-008
2669	 1.6675000000e+002	 3.24229e-008
2670	 1.6681250000e+002	 2.86903e-008
2671	 1.6687500000e+002	 2.13701e-008
2672	 1.6693750000e+002	 2.67650e-008
2673	 1.6700000000e+002	 3.05399e-008
2674	 1.6706250000e+002	 3.04048e-008
2675	 1.6712500000e+002	 2.56290e-008
2676	 1.6718750000e+002	 3.22524e-008
2677	 1.6725000000e+002	 2.95549e-008
2678	 1.6731250000e+002	 2.74434e-008
2679	 1.6737500000e+002	 2.58159e-008
2680	 1.6743750000e+002	 3.48346e-008
2681	 1.6750000000e+002	 2.87022e-008
2682	 1.6756250000e+002	 3.10164e-008
2683	 1.6762500000e+002	 2.46381e-008
2684	 1.6768750000e+002	 3.69104e-008
2685	 1.6775000000e+002	 3.09852e-008
2686	 1.6781250000e+002	 2.23717e-008
2687	 1.6787500000e+002	 2.45952e-008
2688	 1.6793750000e+002	 3.79323e-008
2689	 1.6800000000e+002	 1.79148e-008
2690	 1.6806250000e+002	 2.52144e-008
2691	 1.6812500000e+002	 2.69206e-008
2692	 1.6818750000e+002	 2.62866e-008
2693	 1.6825000000e+002	 2.12246e-008
2694	 1.6831250000e+002	 2.15950e-008
2695	 1.6837500000e+002	 2.39473e-008
2696	 1.6843750000e+002	 1.98645e-008
2697	 1.6850000000e+002	 1.97228e-008
2698	 1.6856250000e+002	 3.12054e-008
2699	 1.6862500000e+002	 1.90556e-008
2700	 1.6868750000e+002	 1.74324e-008
2701	 1.6875000000e+002	 2.05992e-008
2702	 1.6881250000e+002	 2.49264e-008
2703	 1.6887500000e+002	 1.74511e-008
2704	 1.6893750000e+002	 1.58761e-008
2705	 1.6900000000e+002	 2.65897e-008
2706	 1.6906250000e+002	 1.45021e-008
2707	 1.6912500000e+002	 2.51740e-008
2708	 1.6918750000e+002	 2.58086e-008
2709	 1.6925000000e+002	 1.49482e-008
2710	 1.6931250000e+002	 2.15132e-008
2711	 1.6937500000e+002	 2.99682e-008
2712	 1.6943750000e+002	 2.17035e-008
2713	 1.6950000000e+002	 1.96948e-008
2714	 1.6956250000e+002	 2.60050e-008
2715	 1.6962500000e+002	 2.25180e-008
2716	 1.6968750000e+002	 2.77154e-008
2717	 1.6975000000e+002	 1.89817e-008
2718	 1.6981250000e+002	 1.74887e-008
2719	 1.6987500000e+002	 2.31848e-008
2720	 1.6993750000e+002	 3.23416e-008
2721	 1.7000000000e+002	 1.89407e-008
2722	 1.7006250000e+002	 2.70791e-008
2723	 1.7012500000e+002	 2.16239e-008
2724	 1.7018750000e+002	 2.57948e-008
2725	 1.7025000000e+002	 2.89832e-008
2726	 1.7031250000e+002	 2.33048e-008
2727	 1.7037500000e+002	 2.03386e-008
2728	 1.7043750000e+002	 3.26171e-008
2729	 1.7050000000e+002	 2.70787e-008
2730	 1.7056250000e+002	 2.30584e-008
2731	 1.7062500000e+002	 2.16717e-008
2732	 1.7068750000e+002	 2.92635e-008
2733	 1.7075000000e+002	 2.19824e-008
2734	 1.7081250000e+002	 2.70896e-008
2735	 1.7087500000e+002	 1.50859e-008
2736	 1.7093750000e+002	 2.71135e-008
2737	 1.7100000000e+002	 2.16399e-008
2738	 1.7106250000e+002	 2.94434e-008
2739	 1.7112500000e+002	 2.64429e-008
2740	 1.7118750000e+002	 1.89143e-008
2741	 1.7125000000e+002	 2.31197e-008
2742	 1.7131250000e+002	 2.82530e-008
2743	 1.7137500000e+002	 2.43434e-008
2744	 1.7143750000e+002	 3.11256e-008
2745	 1.7150000000e+002	 2.41383e-008
2746	 1.7156250000e+002	 2.28958e-008
2747	 1.7162500000e+002	 3.89529e-008
2748	 1.7168750000e+002	 3.29862e-008
2749	 1.7175000000e+002	 2.63171e-008
2750	 1.7181250000e+002	 2.92639e-008
2751	 1.7187500000e+002	 3.60440e-008
2752	 1.7193750000e+002	 2.87469e-008
2753	 1.7200000000e+002	 3.14865e-008
2754	 1.7206250000e+002	 3.77671e-008
2755	 1.7212500000e+002	 3.48596e-008
2756	 1.7218750000e+002	 2.71588e-008
2757	 1.7225000000e+002	 5.11900e-008
2758	 1.7231250000e+002	 3.42421e-008
2759	 1.7237500000e+002	 3.55109e-008
2760	 1.7243750000e+002	 3.52811e-008
2761	 1.7250000000e+002	 2.72797e-008
2762	 1.7256250000e+002	 4.97239e-008
2763	 1.7262500000e+002	 2.73019e-008
2764	 1.7268750000e+002	 3.06376e-008
2765	 1.7275000000e+002	 5.83860e-008
2766	 1.7281250000e+002	 2.59555e-008
2767	 1.7287500000e+002	 2.42439e-008
2768	 1.7293750000e+002	 4.21330e-008
2769	 1.7300000000e+002	 3.00646e-008
2770	 1.7306250000e+002	 3.16254e-008
2771	 1.7312500000e+002	 3.52156e-008
2772	 1.7318750000e+002	 2.62849e-008
2773	 1.7325000000e+002	 3.53937e-008
2774	 1.7331250000e+002	 3.15827e-008
2775	 1.7337500000e+002	 3.33212e-008
2776	 1.7343750000e+002	 2.92007e-008
2777	 1.7350000000e+002	 3.15950e-008
2778	 1.7356250000e+002	 2.76666e-008
2779	 1.7362500000e+002	 2.63165e-008
2780	 1.7368750000e+002	 2.77547e-008
2781	 1.7375000000e+002	 3.77723e-008
2782	 1.7381250000e+002	 2.33976e-008
2783	 1.7387500000e+002	 2.54431e-008
2784	 1.7393750000e+002	 3.81560e-008
2785	 1.7400000000e+002	 2.81171e-008
2786	 1.7406250000e+002	 2.22086e-008
2787	 1.7412500000e+002	 2.78409e-008
2788	 1.7418750000e+002	 3.29360e-008
2789	 1.7425000000e+002	 3.14622e-008
2790	 1.7431250000e+002	 2.95208e-008
2791	 1.7437500000e+002	 3.83423e-008
2792	 1.7443750000e+002	 3.22939e-008
2793	 1.7450000000e+002	 2.52552e-008
2794	 1.7456250000e+002	 3.16058e-008
2795	 1.7462500000e+002	 3.46589e-008
2796	 1.7468750000e+002	 3.39229e-008
2797	 1.7475000000e+002	 2.30168e-008
2798	 1.7481250000e+002	 3.47333e-008
2799	 1.7487500000e+002	 3.72702e-008
2800	 1.7493750000e+002	 2.86394e-008
2801	 1.7500000000e+002	 2.85259e-008
2802	 1.7506250000e+002	 3.69207e-008
2803	 1.7512500000e+002	 3.95692e-008
2804	 1.7518750000e+002	 3.09083e-008
2805	 1.7525000000e+002	 3.39321e-008
2806	 1.7531250000e+002	 3.24741e-008
2807	 1.7537500000e+002	 3.90655e-008
2808	 1.7543750000e+002	 2.77585e-008
2809	 1.7550000000e+002	 2.93371e-008
2810	 1.7556250000e+002	 2.91198e-008
2811	 1.7562500000e+002	 3.06565e-008
2812	 1.7568750000e+002	 2.98572e-008
2813	 1.7575000000e+002	 2.89479e-008
2814	 1.7581250000e+002	 3.15183e-008
2815	 1.7587500000e+002	 2.70450e-008
2816	 1.7593750000e+002	 2.15764e-008
2817	 1.7600000000e+002	 3.50208e-008
2818	 1.7606250000e+002	 2.21916e-008
2819	 1.7612500000e+002	 2.09574e-008
2820	 1.7618750000e+002	 2.81947e-008
2821	 1.7625000000e+002	 3.24763e-008
2822	 1.7631250000e+002	 2.40404e-008
2823	 1.7637500000e+002	 2.10312e-008
2824	 1.7643750000e+002	 3.42665e-008
2825	 1.7650000000e+002	 1.99810e-008
2826	 1.7656250000e+002	 1.84086e-008
2827	 1.7662500000e+002	 3.44744e-008
2828	 1.7668750000e+002	 2.14498e-008
2829	 1.7675000000e+002	 3.22835e-008
2830	 1.7681250000e+002	 1.33467e-008
2831	 1.7687500000e+002	 2.45139e-008
2832	 1.7693750000e+002	 2.95114e-008
2833	 1.7700000000e+002	 1.67187e-008
2834	 1.7706250000e+002	 1.95017e-008
2835	 1.7712500000e+002	 2.67705e-008
2836	 1.7718750000e+002	 1.68416e-008
2837	 1.7725000000e+002	 2.45477e-008
2838	 1.7731250000e+002	 1.67746e-008
2839	 1.7737500000e+002	 2.81730e-008
2840	 1.7743750000e+002	 1.56026e-008
2841	 1.7750000000e+002	 1.63124e-008
2842	 1.7756250000e+002	 2.80316e-008
2843	 1.7762500000e+002	 2.06999e-008
2844	 1.7768750000e+002	 2.00599e-008
2845	 1.7775000000e+002	 2.23913e-008
2846	 1.7781250000e+002	 1.99351e-008
2847	 1.7787500000e+002	 1.17727e-008
2848	 1.7793750000e+002	 2.80412e-008
2849	 1.7800000000e+002	 1.76184e-008
2850	 1.7806250000e+002	 1.65854e-008
2851	 1.7812500000e+002	 1.36348e-008
2852	 1.7818750000e+002	 2.04179e-008
2853	 1.7825000000e+002	 2.74541e-008
2854	 1.7831250000e+002	 1.77293e-008
2855	 1.7837500000e+002	 1.11639e-008
2856	 1.7843750000e+002	 1.60266e-008
2857	 1.7850000000e+002	 2.01093e-008
2858	 1.7856250000e+002	 1.79582e-008
2859	 1.7862500000e+002	 2.18004e-008
2860	 1.7868750000e+002	 2.47615e-008
2861	 1.7875000000e+002	 8.51154e-009
2862	 1.7881250000e+002	 2.16753e-008
2863	 1.7887500000e+002	 2.76856e-008
2864	 1.7893750000e+002	 1.60927e-008
2865	 1.7900000000e+002	 2.50163e-008
2866	 1.7906250000e+002	 1.62092e-008
2867	 1.7912500000e+002	 1.41646e-008
2868	 1.7918750000e+002	 2.46911e-008
2869	 1.7925000000e+002	 2.32600e-008
2870	 1.7931250000e+002	 1.59809e-008
2871	 1.7937500000e+002	 2.06266e-008
2872	 1.7943750000e+002	 1.99602e-008
2873	 1.7950000000e+002	 2.22737e-008
2874	 1.7956250000e+002	 2.56258e-008
2875	 1.7962500000e+002	 2.00627e-008
2876	 1.7968750000e+002	 2.27480e-008
2877	 1.7975000000e+002	 2.18428e-008
2878	 1.7981250000e+002	 2.62982e-008
2879	 1.7987500000e+002	 1.74365e-008
2880	 1.7993750000e+002	 3.19888e-008
2881	 1.8000000000e+002	 2.72498e-008
2882	 1.8006250000e+002	 2.25415e-008
2883	 1.8012500000e+002	 2.19226e-008
2884	 1.8018750000e+002	 2.79474e-008
2885	 1.8025000000e+002	 2.65527e-008
2886	 1.8031250000e+002	 2.36043e-008
2887	 1.8037500000e+002	 2.52966e-008
2888	 1.8043750000e+002	 2.24063e-008
2889	 1.8050000000e+002	 2.66545e-008
2890	 1.8056250000e+002	 2.98033e-008
2891	 1.8062500000e+002	 3.26863e-008
2892	 1.8068750000e+002	 1.86408e-008
2893	 1.8075000000e+002	 3.77545e-008
2894	 1.8081250000e+002	 1.94340e-008
2895	 1.8087500000e+002	 2.94750e-008
2896	 1.8093750000e+002	 2.86741e-008
2897	 1.8100000000e+002	 3.24880e-008
2898	 1.8106250000e+002	 1.98555e-008
2899	 1.8112500000e+002	 3.34110e-008
2900	 1.8118750000e+002	 2.92944e-008
2901	 1.8125000000e+002	 1.94441e-008
2902	 1.8131250000e+002	 3.31221e-008
2903	 1.8137500000e+002	 2.79426e-008
2904	 1.8143750000e+002	 3.82530e-008
2905	 1.8150000000e+002	 2.09728e-008
2906	 1.8156250000e+002	 2.48346e-008
2907	 1.8162500000e+002	 3.64425e-008
2908	 1.8168750000e+002	 3.44321e-008
2909	 1.8175000000e+002	 1.53195e-008
2910	 1.8181250000e+002	 3.16829e-008
2911	 1.8187500000e+002	 3.69491e-008
2912	 1.8193750000e+002	 3.63832e-008
2913	 1.8200000000e+002	 1.86474e-008
2914	 1.8206250000e+002	 4.37083e-008
2915	 1.8212500000e+002	 3.01081e-008
2916	 1.8218750000e+002	 2.62371e-008
2917	 1.8225000000e+002	 3.54513e-008
2918	 1.8231250000e+002	 4.37613e-008
2919	 1.8237500000e+002	 2.55624e-008
2920	 1.8243750000e+002	 3.95358e-008
2921	 1.8250000000e+002	 4.12688e-008
2922	 1.8256250000e+002	 3.23994e-008
2923	 1.8262500000e+002	 2.60394e-008
2924	 1.8268750000e+002	 4.41554e-008
2925	 1.8275000000e+002	 3.57866e-008
2926	 1.8281250000e+002	 3.44266e-008
2927	 1.8287500000e+002	 4.12093e-008
2928	 1.8293750000e+002	 4.54022e-008
2929	 1.8300000000e+002	 4.78660e-008
2930	 1.8306250000e+002	 2.20354e-008
2931	 1.8312500000e+002	 3.42116e-008
2932	 1.8318750000e+002	 4.79175e-008
2933	 1.8325000000e+002	 3.77132e-008
2934	 1.8331250000e+002	 3.03085e-008
2935	 1.8337500000e+002	 4.85032e-008
2936	 1.8343750000e+002	 3.60443e-008
2937	 1.8350000000e+002	 3.25439e-008
2938	 1.8356250000e+002	 4.01422e-008
2939	 1.8362500000e+002	 3.04445e-008
2940	 1.8368750000e+002	 2.98556e-008
2941	 1.8375000000e+002	 3.76758e-008
2942	 1.8381250000e+002	 3.25422e-008
2943	 1.8387500000e+002	 3.34532e-008
2944	 1.8393750000e+002	 3.65128e-008
2945	 1.8400000000e+002	 3.45301e-008
2946	 1.8406250000e+002	 3.05927e-008
2947	 1.8412500000e+002	 2.17895e-008
2948	 1.8418750000e+002	 4.18447e-008
2949	 1.8425000000e+002	 2.40354e-008
2950	 1.8431250000e+002	 2.87230e-008
2951	 1.8437500000e+002	 3.57916e-008
2952	 1.8443750000e+002	 2.63439e-008
2953	 1.8450000000e+002	 2.86415e-008
2954	 1.8456250000e+002	 3.87098e-008
2955	 1.8462500000e+002	 2.69897e-008
2956	 1.8468750000e+002	 2.05783e-008
2957	 1.8475000000e+002	 4.13052e-008
2958	 1.8481250000e+002	 2.78708e-008
2959	 1.8487500000e+002	 2.17326e-008
2960	 1.8493750000e+002	 2.77248e-008
2961	 1.8500000000e+002	 4.06115e-008
2962	 1.8506250000e+002	 2.64242e-008
2963	 1.8512500000e+002	 2.46891e-008
2964	 1.8518750000e+002	 3.12535e-008
2965	 1.8525000000e+002	 2.06578e-008
2966	 1.8531250000e+002	 2.83156e-008
2967	 1.8537500000e+002	 3.09446e-008
2968	 1.8543750000e+002	 2.60000e-008
2969	 1.8550000000e+002	 2.72690e-008
2970	 1.8556250000e+002	 2.31904e-008
2971	 1.8562500000e+002	 2.26102e-008
2972	 1.8568750000e+002	 2.52161e-008
2973	 1.8575000000e+002	 1.70551e-008
2974	 1.8581250000e+002	 2.19346e-008
2975	 1.8587500000e+002	 2.30140e-008
2976	 1.8593750000e+002	 2.05438e-008
2977	 1.8600000000e+002	 2.30454e-008
2978	 1.8606250000e+002	 1.88055e-008
2979	 1.8612500000e+002	 2.67610e-008
2980	 1.8618750000e+002	 1.63271e-008
2981	 1.8625000000e+002	 1.87311e-008
2982	 1.8631250000e+002	 2.19999e-008
2983	 1.8637500000e+002	 1.63923e-008
2984	 1.8643750000e+002	 1.71094e-008
2985	 1.8650000000e+002	 2.65270e-008
2986	 1.8656250000e+002	 1.17099e-008
2987	 1.8662500000e+002	 1.87047e-008
2988	 1.8668750000e+002	 2.61360e-008
2989	 1.8675000000e+002	 1.85917e-008
2990	 1.8681250000e+002	 1.47535e-008
2991	 1.8687500000e+002	 1.93965e-008
2992	 1.8693750000e+002	 2.82135e-008
2993	 1.8700000000e+002	 1.32892e-008
2994	 1.8706250000e+002	 1.49654e-008
2995	 1.8712500000e+002	 2.67365e-008
2996	 1.8718750000e+002	 2.49206e-008
2997	 1.8725000000e+002	 1.23758e-008
2998	 1.8731250000e+002	 2.15128e-008
2999	 1.8737500000e+002	 2.62840e-008
3000	 1.8743750000e+002	 1.69078e-008
3001	 1.8750000000e+002	 1.31604e-008
3002	 1.8756250000e+002	 3.02668e-008
3003	 1.8762500000e+002	 2.08277e-008
3004	 1.8768750000e+002	 2.04924e-008
3005	 1.8775000000e+002	 1.98769e-008
3006	 1.8781250000e+002	 2.46450e-008
3007	 1.8787500000e+002	 1.93378e-008
3008	 1.8793750000e+002	 3.04380e-008
3009	 1.8800000000e+002	 2.73965e-008
3010	 1.8806250000e+002	 1.57688e-008
3011	 1.8812500000e+002	 2.16087e-008
3012	 1.8818750000e+002	 2.73377e-008
3013	 1.8825000000e+002	 2.04370e-008
3014	 1.8831250000e+002	 1.18778e-008
3015	 1.8837500000e+002	 3.00030e-008
3016	 1.8843750000e+002	 1.70730e-008
3017	 1.8850000000e+002	 1.34587e-008
3018	 1.8856250000e+002	 1.61737e-008
3019	 1.8862500000e+002	 1.53082e-008
3020	 1.8868750000e+002	 2.33466e-008
3021	 1.8875000000e+002	 1.10855e-008
3022	 1.8881250000e+002	 1.66702e-008
3023	 1.8887500000e+002	 1.89317e-008
3024	 1.8893750000e+002	 2.52316e-008
3025	 1.8900000000e+002	 1.50596e-008
3026	 1.8906250000e+002	 2.26753e-008
3027	 1.8912500000e+002	 1.35011e-008
3028	 1.8918750000e+002	 2.57405e-008
3029	 1.8925000000e+002	 2.57648e-008
3030	 1.8931250000e+002	 1.95913e-008
3031	 1.8937500000e+002	 1.17690e-008
3032	 1.8943750000e+002	 2.92265e-008
3033	 1.8950000000e+002	 2.72818e-008
3034	 1.8956250000e+002	 1.68109e-008
3035	 1.8962500000e+002	 2.24197e-008
3036	 1.8968750000e+002	 3.28218e-008
3037	 1.8975000000e+002	 2.28238e-008
3038	 1.8981250000e+002	 1.50739e-008
3039	 1.8987500000e+002	 3.75245e-008
3040	 1.8993750000e+002	 3.09861e-008
3041	 1.9000000000e+002	 2.18007e-008
3042	 1.9006250000e+002	 3.28489e-008
3043	 1.9012500000e+002	 3.25756e-008
3044	 1.9018750000e+002	 2.17507e-008
3045	 1.9025000000e+002	 3.76274e-008
3046	 1.9031250000e+002	 3.16317e-008
3047	 1.9037500000e+002	 2.83705e-008
3048	 1.9043750000e+002	 2.45736e-008
3049	 1.9050000000e+002	 5.21627e-008
3050	 1.9056250000e+002	 2.69946e-008
3051	 1.9062500000e+002	 2.86536e-008
3052	 1.9068750000e+002	 4.21957e-008
3053	 1.9075000000e+002	 2.56719e-008
3054	 1.9081250000e+002	 2.32651e-008
3055	 1.9087500000e+002	 3.47179e-008
3056	 1.9093750000e+002	 4.49831e-008
3057	 1.9100000000e+002	 2.77002e-008
3058	 1.9106250000e+002	 4.28435e-008
3059	 1.9112500000e+002	 3.96684e-008
3060	 1.9118750000e+002	 3.48252e-008
3061	 1.9125000000e+002	 3.11250e-008
3062	 1.9131250000e+002	 3.94887e-008
3063	 1.9137500000e+002	 4.98486e-008
3064	 1.9143750000e+002	 2.50386e-008
3065	 1.9150000000e+002	 4.99662e-008
3066	 1.9156250000e+002	 4.56174e-008
3067	 1.9162500000e+002	 3.34356e-008
3068	 1.9168750000e+002	 4.03637e-008
3069	 1.9175000000e+002	 5.15052e-008
3070	 1.9181250000e+002	 4.05868e-008
3071	 1.9187500000e+002	 2.60086e-008
3072	 1.9193750000e+002	 4.78729e-008
3073	 1.9200000000e+002	 4.18243e-008
3074	 1.9206250000e+002	 3.48787e-008
3075	 1.9212500000e+002	 3.58963e-008
3076	 1.9218750000e+002	 4.67900e-008
3077	 1.9225000000e+002	 3.19260e-008
3078	 1.9231250000e+002	 3.74205e-008
3079	 1.9237500000e+002	 4.85096e-008
3080	 1.9243750000e+002	 2.55267e-008
3081	 1.9250000000e+002	 3.03651e-008
3082	 1.9256250000e+002	 5.46154e-008
3083	 1.9262500000e+002	 3.11651e-008
3084	 1.9268750000e+002	 4.38926e-008
3085	 1.9275000000e+002	 3.90760e-008
3086	 1.9281250000e+002	 2.83375e-008
3087	 1.9287500000e+002	 3.19400e-008
3088	 1.9293750000e+002	 4.75747e-008
3089	 1.9300000000e+002	 3.75425e-008
3090	 1.9306250000e+002	 2.65099e-008
3091	 1.9312500000e+002	 3.45110e-008
3092	 1.9318750000e+002	 4.30942e-008
3093	 1.9325000000e+002	 3.00474e-008
3094	 1.9331250000e+002	 2.39403e-008
3095	 1.9337500000e+002	 4.38775e-008
3096	 1.9343750000e+002	 4.14390e-008
3097	 1.9350000000e+002	 2.19646e-008
3098	 1.9356250000e+002	 2.58412e-008
3099	 1.9362500000e+002	 4.89445e-008
3100	 1.9368750000e+002	 2.69508e-008
3101	 1.9375000000e+002	 2.54497e-008
3102	 1.9381250000e+002	 2.54287e-008
3103	 1.9387500000e+002	 4.54635e-008
3104	 1.9393750000e+002	 2.33381e-008
3105	 1.9400000000e+002	 1.90637e-008
3106	 1.9406250000e+002	 2.72415e-008
3107	 1.9412500000e+002	 2.90085e-008
3108	 1.9418750000e+002	 2.16935e-008
3109	 1.9425000000e+002	 2.73682e-008
3110	 1.9431250000e+002	 2.87878e-008
3111	 1.9437500000e+002	 2.55481e-008
3112	 1.9443750000e+002	 1.98588e-008
3113	 1.9450000000e+002	 2.87944e-008
3114	 1.9456250000e+002	 2.47102e-008
3115	 1.9462500000e+002	 2.21154e-008
3116	 1.9468750000e+002	 2.46659e-008
3117	 1.9475000000e+002	 2.63081e-008
3118	 1.9481250000e+002	 2.48694e-008
3119	 1.9487500000e+002	 2.66608e-008
3120	 1.9493750000e+002	 1.86031e-008
3121	 1.9500000000e+002	 2.82373e-008
3122	 1.9506250000e+002	 2.05369e-008
3123	 1.9512500000e+002	 2.67949e-008
3124	 1.9518750000e+002	 2.50428e-008
3125	 1.9525000000e+002	 1.96817e-008
3126	 1.9531250000e+002	 1.85720e-008
3127	 1.9537500000e+002	 2.65218e-008
3128	 1.9543750000e+002	 1.65454e-008
3129	 1.9550000000e+002	 2.31187e-008
3130	 1.9556250000e+002	 2.48733e-008
3131	 1.9562500000e+002	 1.69867e-008
3132	 1.9568750000e+002	 1.63692e-008
3133	 1.9575000000e+002	 2.57921e-008
3134	 1.9581250000e+002	 2.26143e-008
3135	 1.9587500000e+002	 8.13174e-009
3136	 1.9593750000e+002	 1.96769e-008
3137	 1.9600000000e+002	 3.41636e-008
3138	 1.9606250000e+002	 1.25461e-008
3139	 1.9612500000e+002	 1.61035e-008
3140	 1.9618750000e+002	 3.05105e-008
3141	 1.9625000000e+002	 1.68167e-008
3142	 1.9631250000e+002	 8.55846e-009
3143	 1.9637500000e+002	 1.47469e-008
3144	 1.9643750000e+002	 2.33446e-008
3145	 1.9650000000e+002	 1.33961e-008
3146	 1.9656250000e+002	 1.04868e-008
3147	 1.9662500000e+002	 2.18868e-008
3148	 1.9668750000e+002	 2.29624e-008
3149	 1.9675000000e+002	 6.75075e-009
3150	 1.9681250000e+002	 9.00165e-009
3151	 1.9687500000e+002	 2.55490e-008
3152	 1.9693750000e+002	 9.31644e-009
3153	 1.9700000000e+002	 9.48804e-009
3154	 1.9706250000e+002	 1.76108e-008
3155	 1.9712500000e+002	 7.76177e-009
3156	 1.9718750000e+002	 1.38900e-008
3157	 1.9725000000e+002	 1.18071e-008
3158	 1.9731250000e+002	 2.65427e-008
3159	 1.9737500000e+002	 6.90917e-009
3160	 1.9743750000e+002	 1.48008e-008
3161	 1.9750000000e+002	 2.59203e-008
3162	 1.9756250000e+002	 1.61306e-008
3163	 1.9762500000e+002	 1.02872e-008
3164	 1.9768750000e+002	 2.98241e-008
3165	 1.9775000000e+002	 1.38637e-008
3166	 1.9781250000e+002	 1.62338e-008
3167	 1.9787500000e+002	 3.07266e-008
3168	 1.9793750000e+002	 2.38553e-008
3169	 1.9800000000e+002	 8.58086e-009
3170	 1.9806250000e+002	 2.24612e-008
3171	 1.9812500000e+002	 2.97536e-008
3172	 1.9818750000e+002	 1.93525e-008
3173	 1.9825000000e+002	 1.46542e-008
3174	 1.9831250000e+002	 2.74950e-008
3175	 1.9837500000e+002	 2.13783e-008
3176	 1.9843750000e+002	 1.38993e-008
3177	 1.9850000000e+002	 2.65998e-008
3178	 1.9856250000e+002	 2.21922e-008
3179	 1.9862500000e+002	 1.74993e-008
3180	 1.9868750000e+002	 2.12020e-008
3181	 1.9875000000e+002	 3.13011e-008
3182	 1.9881250000e+002	 1.95640e-008
3183	 1.9887500000e+002	 1.77916e-008
3184	 1.9893750000e+002	 4.06323e-008
3185	 1.9900000000e+002	 1.68159e-008
3186	 1.9906250000e+002	 2.37554e-008
3187	 1.9912500000e+002	 4.18292e-008
3188	 1.9918750000e+002	 2.66118e-008
3189	 1.9925000000e+002	 8.78717e-009
3190	 1.9931250000e+002	 5.17785e-008
3191	 1.9937500000e+002	 3.37704e-008
3192	 1.9943750000e+002	 6.91188e-009
3193	 1.9950000000e+002	 4.55013e-008
3194	 1.9956250000e+002	 5.11697e-008
3195	 1.9962500000e+002	 7.41773e-009
3196	 1.9968750000e+002	 3.08887e-008
3197	 1.9975000000e+002	 7.69163e-008
3198	 1.9981250000e+002	 2.28709e-008
3199	 1.9987500000e+002	 1.49676e-008
3200	 1.9993750000e+002	 7.62894e-008
3201	 2.0000000000e+002	 5.47414e-008
TagsBegin:	 	 
OverLoad:	 	False
AverageNumber: []	 	 1.00000e+000
OverLoadRatio: []	 	 1.19209e-007
TagsEnd:	 	 
TagScalesBegin:	 	 
TagScalesEnd:	 	 
