Header Size:	 78	 
Pulse Version:	 42	 
Decimal Symbol:	.	 
Date Format:	dd/MM/yyyy	 
Time Format:	HH:mm:ss:mmm	 
Data Type:	Real	 
Slice:	False	 
Z-Axis type:	Linear	 
Z-Axis size:	1	 
Z-Axis unit:	 	 
Z-Axis first value:	 0.0000000000e+000	 
Z-Axis delta:	 1.0000000000e+000	 
X-Axis type:	Linear	 
X-Axis size:	3201	 
X-Axis unit:	Hz	 
X-Axis first value:	 0.0000000000e+000	 
X-Axis delta:	 6.2500000000e-002	 
	 	 
AmplitudeUnit:	m/s²	 
Analyzer:	FFT_Spectrum_Averaging	 
AnalyzerName:	FFT	 
	 	 
	 	 
Bipolar:	False	 
CenterFrequency:	 1.0000000000e+002	 
	 	 
	 	 
	 	 
	 	 
	 	 
	 	 
	 	 
	 	 
Domain:	1	 
Function:	Autospectrum	 
	 	 
InputRange:	 9.7369860443e+003	 
	 	 
	 	 
MultiBufferName:	Input	 
NBW:	 1.5000000000e+000	 
	 	 
OverlapFailed:	False	 
Overrun:	False	 
Power:	True	 
PowerUnit:	(m/s²)²	 
	 	 
RecordLength:	 1.6000000000e+001	 
ReducedSize:	True	 
	 	 
	 	 
	 	 
	 	 
	 	 
SamplingRatio:	 2.5600000000e+000	 
Signal:	Signal 1	 
	 	 
SignalUnit:	m/s²	 
	 	 
	 	 
	 	 
Title:	Autospectrum(Signal 1) - Input	 
Title1:	Working : Input : Input : FFT	 
	 	 
	 	 
Weight:	0	 
ZoomOn:	False	 
	 	 
TemplateName:	Working	 
MeasurementName:	Input	 
MeasurementSlice:	False	 
	 	 
DeltaFrequency:	 6.2500000000e-002	 
	 	 
EnvelopeOn:	False	 
	 	 
	 	 
	 	 
Z-index:	 	1
Date:	 	01/01/2008
Time:	 	01:01:46:000
Relative time:	 	 0.00000e+000
Z-axis:	 	 0.0000000000e+000
1	 0.0000000000e+000	 1.92622e-007
2	 6.2500000000e-002	 3.47652e-007
3	 1.2500000000e-001	 3.73063e-006
4	 1.8750000000e-001	 1.21956e-005
5	 2.5000000000e-001	 1.07347e-005
6	 3.1250000000e-001	 8.05980e-006
7	 3.7500000000e-001	 6.27428e-007
8	 4.3750000000e-001	 2.12303e-006
9	 5.0000000000e-001	 2.84695e-005
10	 5.6250000000e-001	 1.92834e-005
11	 6.2500000000e-001	 2.28703e-006
12	 6.8750000000e-001	 2.21668e-006
13	 7.5000000000e-001	 6.88003e-006
14	 8.1250000000e-001	 1.06204e-006
15	 8.7500000000e-001	 1.15096e-006
16	 9.3750000000e-001	 7.33466e-007
17	 1.0000000000e+000	 6.14673e-006
18	 1.0625000000e+000	 2.12080e-005
19	 1.1250000000e+000	 8.24573e-006
20	 1.1875000000e+000	 2.36788e-006
21	 1.2500000000e+000	 7.43213e-006
22	 1.3125000000e+000	 3.59347e-006
23	 1.3750000000e+000	 2.63182e-006
24	 1.4375000000e+000	 1.63876e-005
25	 1.5000000000e+000	 5.65595e-006
26	 1.5625000000e+000	 2.95773e-006
27	 1.6250000000e+000	 2.41681e-006
28	 1.6875000000e+000	 1.99169e-006
29	 1.7500000000e+000	 3.79082e-006
30	 1.8125000000e+000	 2.15457e-006
31	 1.8750000000e+000	 2.00259e-006
32	 1.9375000000e+000	 9.37942e-008
33	 2.0000000000e+000	 5.01493e-006
34	 2.0625000000e+000	 1.96080e-006
35	 2.1250000000e+000	 2.48934e-006
36	 2.1875000000e+000	 1.34576e-006
37	 2.2500000000e+000	 1.06133e-006
38	 2.3125000000e+000	 2.47519e-006
39	 2.3750000000e+000	 2.97785e-006
40	 2.4375000000e+000	 3.01726e-006
41	 2.5000000000e+000	 3.04683e-006
42	 2.5625000000e+000	 2.41959e-006
43	 2.6250000000e+000	 3.73906e-006
44	 2.6875000000e+000	 4.71636e-006
45	 2.7500000000e+000	 4.86688e-006
46	 2.8125000000e+000	 5.61257e-006
47	 2.8750000000e+000	 3.39396e-006
48	 2.9375000000e+000	 9.50922e-006
49	 3.0000000000e+000	 8.80258e-006
50	 3.0625000000e+000	 9.34745e-006
51	 3.1250000000e+000	 8.82338e-006
52	 3.1875000000e+000	 1.00588e-005
53	 3.2500000000e+000	 1.18883e-005
54	 3.3125000000e+000	 1.35393e-005
55	 3.3750000000e+000	 1.30441e-005
56	 3.4375000000e+000	 1.40022e-005
57	 3.5000000000e+000	 1.76467e-005
58	 3.5625000000e+000	 2.05306e-005
59	 3.6250000000e+000	 2.07572e-005
60	 3.6875000000e+000	 2.51753e-005
61	 3.7500000000e+000	 2.62284e-005
62	 3.8125000000e+000	 2.26673e-005
63	 3.8750000000e+000	 3.25843e-005
64	 3.9375000000e+000	 3.28620e-005
65	 4.0000000000e+000	 3.19509e-005
66	 4.0625000000e+000	 3.90516e-005
67	 4.1250000000e+000	 4.41828e-005
68	 4.1875000000e+000	 4.49359e-005
69	 4.2500000000e+000	 5.20582e-005
70	 4.3125000000e+000	 5.00172e-005
71	 4.3750000000e+000	 5.79917e-005
72	 4.4375000000e+000	 6.16236e-005
73	 4.5000000000e+000	 6.91390e-005
74	 4.5625000000e+000	 7.14379e-005
75	 4.6250000000e+000	 8.07774e-005
76	 4.6875000000e+000	 8.79291e-005
77	 4.7500000000e+000	 1.00752e-004
78	 4.8125000000e+000	 1.04083e-004
79	 4.8750000000e+000	 1.24179e-004
80	 4.9375000000e+000	 1.38863e-004
81	 5.0000000000e+000	 1.66503e-004
82	 5.0625000000e+000	 1.94185e-004
83	 5.1250000000e+000	 2.38861e-004
84	 5.1875000000e+000	 3.04125e-004
85	 5.2500000000e+000	 3.78380e-004
86	 5.3125000000e+000	 4.27289e-004
87	 5.3750000000e+000	 3.76712e-004
88	 5.4375000000e+000	 3.56580e-004
89	 5.5000000000e+000	 3.74166e-004
90	 5.5625000000e+000	 4.16361e-004
91	 5.6250000000e+000	 4.81457e-004
92	 5.6875000000e+000	 5.69970e-004
93	 5.7500000000e+000	 6.65516e-004
94	 5.8125000000e+000	 7.58849e-004
95	 5.8750000000e+000	 8.00487e-004
96	 5.9375000000e+000	 9.42884e-004
97	 6.0000000000e+000	 1.04063e-003
98	 6.0625000000e+000	 1.22744e-003
99	 6.1250000000e+000	 1.34914e-003
100	 6.1875000000e+000	 1.59746e-003
101	 6.2500000000e+000	 1.78126e-003
102	 6.3125000000e+000	 2.07107e-003
103	 6.3750000000e+000	 2.36284e-003
104	 6.4375000000e+000	 2.72637e-003
105	 6.5000000000e+000	 3.14740e-003
106	 6.5625000000e+000	 3.53688e-003
107	 6.6250000000e+000	 4.08451e-003
108	 6.6875000000e+000	 4.61051e-003
109	 6.7500000000e+000	 5.33241e-003
110	 6.8125000000e+000	 6.10167e-003
111	 6.8750000000e+000	 6.97407e-003
112	 6.9375000000e+000	 7.90791e-003
113	 7.0000000000e+000	 8.98256e-003
114	 7.0625000000e+000	 1.08145e-002
115	 7.1250000000e+000	 1.29091e-002
116	 7.1875000000e+000	 1.62223e-002
117	 7.2500000000e+000	 2.05766e-002
118	 7.3125000000e+000	 2.57237e-002
119	 7.3750000000e+000	 3.49773e-002
120	 7.4375000000e+000	 4.84961e-002
121	 7.5000000000e+000	 4.45026e-002
122	 7.5625000000e+000	 1.19721e-002
123	 7.6250000000e+000	 7.37294e-004
124	 7.6875000000e+000	 3.31815e-004
125	 7.7500000000e+000	 1.63739e-004
126	 7.8125000000e+000	 2.64170e-004
127	 7.8750000000e+000	 1.95809e-004
128	 7.9375000000e+000	 1.64560e-004
129	 8.0000000000e+000	 1.80115e-004
130	 8.0625000000e+000	 1.54024e-004
131	 8.1250000000e+000	 1.70409e-004
132	 8.1875000000e+000	 1.72180e-004
133	 8.2500000000e+000	 1.27741e-004
134	 8.3125000000e+000	 1.33068e-004
135	 8.3750000000e+000	 1.50660e-004
136	 8.4375000000e+000	 1.45505e-004
137	 8.5000000000e+000	 1.27298e-004
138	 8.5625000000e+000	 1.23324e-004
139	 8.6250000000e+000	 8.96310e-005
140	 8.6875000000e+000	 1.05440e-004
141	 8.7500000000e+000	 1.05715e-004
142	 8.8125000000e+000	 7.94654e-005
143	 8.8750000000e+000	 8.79337e-005
144	 8.9375000000e+000	 7.56937e-005
145	 9.0000000000e+000	 7.55411e-005
146	 9.0625000000e+000	 4.09746e-005
147	 9.1250000000e+000	 5.69409e-005
148	 9.1875000000e+000	 5.10881e-005
149	 9.2500000000e+000	 5.58136e-005
150	 9.3125000000e+000	 4.61071e-005
151	 9.3750000000e+000	 4.91286e-005
152	 9.4375000000e+000	 2.49174e-005
153	 9.5000000000e+000	 2.40032e-005
154	 9.5625000000e+000	 3.30619e-005
155	 9.6250000000e+000	 2.27548e-005
156	 9.6875000000e+000	 2.60230e-005
157	 9.7500000000e+000	 2.30138e-005
158	 9.8125000000e+000	 2.80762e-005
159	 9.8750000000e+000	 2.23475e-005
160	 9.9375000000e+000	 2.13663e-005
161	 1.0000000000e+001	 2.18183e-005
162	 1.0062500000e+001	 2.50278e-005
163	 1.0125000000e+001	 1.73923e-005
164	 1.0187500000e+001	 2.08193e-005
165	 1.0250000000e+001	 1.66797e-005
166	 1.0312500000e+001	 1.49943e-005
167	 1.0375000000e+001	 1.04697e-005
168	 1.0437500000e+001	 9.78643e-006
169	 1.0500000000e+001	 7.67722e-006
170	 1.0562500000e+001	 1.06864e-005
171	 1.0625000000e+001	 9.43149e-006
172	 1.0687500000e+001	 1.68998e-005
173	 1.0750000000e+001	 1.50192e-005
174	 1.0812500000e+001	 1.83458e-005
175	 1.0875000000e+001	 1.51306e-005
176	 1.0937500000e+001	 1.59132e-005
177	 1.1000000000e+001	 1.51362e-005
178	 1.1062500000e+001	 1.30919e-005
179	 1.1125000000e+001	 1.32677e-005
180	 1.1187500000e+001	 1.11297e-005
181	 1.1250000000e+001	 1.48052e-005
182	 1.1312500000e+001	 9.59780e-006
183	 1.1375000000e+001	 1.43159e-005
184	 1.1437500000e+001	 1.14246e-005
185	 1.1500000000e+001	 1.36421e-005
186	 1.1562500000e+001	 1.31839e-005
187	 1.1625000000e+001	 1.55469e-005
188	 1.1687500000e+001	 1.52142e-005
189	 1.1750000000e+001	 1.44504e-005
190	 1.1812500000e+001	 2.07453e-005
191	 1.1875000000e+001	 1.98752e-005
192	 1.1937500000e+001	 1.67569e-005
193	 1.2000000000e+001	 2.86117e-005
194	 1.2062500000e+001	 2.34142e-005
195	 1.2125000000e+001	 2.91891e-005
196	 1.2187500000e+001	 2.85752e-005
197	 1.2250000000e+001	 3.84345e-005
198	 1.2312500000e+001	 3.91585e-005
199	 1.2375000000e+001	 4.37800e-005
200	 1.2437500000e+001	 4.31515e-005
201	 1.2500000000e+001	 5.28236e-005
202	 1.2562500000e+001	 4.54106e-005
203	 1.2625000000e+001	 6.52729e-005
204	 1.2687500000e+001	 3.73304e-005
205	 1.2750000000e+001	 5.93701e-005
206	 1.2812500000e+001	 4.30090e-005
207	 1.2875000000e+001	 5.35008e-005
208	 1.2937500000e+001	 5.67794e-005
209	 1.3000000000e+001	 6.52840e-005
210	 1.3062500000e+001	 6.68787e-005
211	 1.3125000000e+001	 7.15341e-005
212	 1.3187500000e+001	 7.69374e-005
213	 1.3250000000e+001	 7.74156e-005
214	 1.3312500000e+001	 7.86417e-005
215	 1.3375000000e+001	 8.39190e-005
216	 1.3437500000e+001	 8.64877e-005
217	 1.3500000000e+001	 8.96081e-005
218	 1.3562500000e+001	 9.24290e-005
219	 1.3625000000e+001	 8.95613e-005
220	 1.3687500000e+001	 9.31171e-005
221	 1.3750000000e+001	 9.47401e-005
222	 1.3812500000e+001	 9.37452e-005
223	 1.3875000000e+001	 9.46595e-005
224	 1.3937500000e+001	 8.91029e-005
225	 1.4000000000e+001	 9.03605e-005
226	 1.4062500000e+001	 8.48413e-005
227	 1.4125000000e+001	 8.11469e-005
228	 1.4187500000e+001	 7.22098e-005
229	 1.4250000000e+001	 6.70832e-005
230	 1.4312500000e+001	 6.05602e-005
231	 1.4375000000e+001	 5.15854e-005
232	 1.4437500000e+001	 4.14204e-005
233	 1.4500000000e+001	 3.32953e-005
234	 1.4562500000e+001	 2.46303e-005
235	 1.4625000000e+001	 1.82490e-005
236	 1.4687500000e+001	 1.41404e-005
237	 1.4750000000e+001	 1.35473e-005
238	 1.4812500000e+001	 1.82745e-005
239	 1.4875000000e+001	 2.32059e-005
240	 1.4937500000e+001	 3.06572e-005
241	 1.5000000000e+001	 3.32283e-005
242	 1.5062500000e+001	 2.52282e-005
243	 1.5125000000e+001	 2.53873e-005
244	 1.5187500000e+001	 2.30285e-005
245	 1.5250000000e+001	 2.23849e-005
246	 1.5312500000e+001	 2.14765e-005
247	 1.5375000000e+001	 2.16699e-005
248	 1.5437500000e+001	 2.16693e-005
249	 1.5500000000e+001	 2.15100e-005
250	 1.5562500000e+001	 2.05120e-005
251	 1.5625000000e+001	 1.99306e-005
252	 1.5687500000e+001	 2.00062e-005
253	 1.5750000000e+001	 1.95927e-005
254	 1.5812500000e+001	 1.83087e-005
255	 1.5875000000e+001	 1.77969e-005
256	 1.5937500000e+001	 1.81430e-005
257	 1.6000000000e+001	 1.73349e-005
258	 1.6062500000e+001	 1.74604e-005
259	 1.6125000000e+001	 1.71341e-005
260	 1.6187500000e+001	 1.63880e-005
261	 1.6250000000e+001	 1.65178e-005
262	 1.6312500000e+001	 1.58974e-005
263	 1.6375000000e+001	 1.54767e-005
264	 1.6437500000e+001	 1.54984e-005
265	 1.6500000000e+001	 1.54499e-005
266	 1.6562500000e+001	 1.53462e-005
267	 1.6625000000e+001	 1.45158e-005
268	 1.6687500000e+001	 1.40227e-005
269	 1.6750000000e+001	 1.36882e-005
270	 1.6812500000e+001	 1.36996e-005
271	 1.6875000000e+001	 1.24877e-005
272	 1.6937500000e+001	 1.28573e-005
273	 1.7000000000e+001	 1.20734e-005
274	 1.7062500000e+001	 1.16050e-005
275	 1.7125000000e+001	 1.13275e-005
276	 1.7187500000e+001	 1.05942e-005
277	 1.7250000000e+001	 1.05091e-005
278	 1.7312500000e+001	 1.00272e-005
279	 1.7375000000e+001	 9.05177e-006
280	 1.7437500000e+001	 9.02748e-006
281	 1.7500000000e+001	 8.74644e-006
282	 1.7562500000e+001	 8.46626e-006
283	 1.7625000000e+001	 8.00996e-006
284	 1.7687500000e+001	 8.24020e-006
285	 1.7750000000e+001	 7.77338e-006
286	 1.7812500000e+001	 8.09097e-006
287	 1.7875000000e+001	 8.27853e-006
288	 1.7937500000e+001	 8.00400e-006
289	 1.8000000000e+001	 8.04820e-006
290	 1.8062500000e+001	 8.18599e-006
291	 1.8125000000e+001	 7.68214e-006
292	 1.8187500000e+001	 7.72939e-006
293	 1.8250000000e+001	 7.61872e-006
294	 1.8312500000e+001	 7.65224e-006
295	 1.8375000000e+001	 7.09790e-006
296	 1.8437500000e+001	 7.34168e-006
297	 1.8500000000e+001	 7.36509e-006
298	 1.8562500000e+001	 7.28143e-006
299	 1.8625000000e+001	 7.03408e-006
300	 1.8687500000e+001	 7.04998e-006
301	 1.8750000000e+001	 7.16693e-006
302	 1.8812500000e+001	 6.54001e-006
303	 1.8875000000e+001	 6.79800e-006
304	 1.8937500000e+001	 6.64620e-006
305	 1.9000000000e+001	 6.03211e-006
306	 1.9062500000e+001	 6.06431e-006
307	 1.9125000000e+001	 5.79715e-006
308	 1.9187500000e+001	 5.61124e-006
309	 1.9250000000e+001	 5.40048e-006
310	 1.9312500000e+001	 5.27844e-006
311	 1.9375000000e+001	 5.07499e-006
312	 1.9437500000e+001	 4.96146e-006
313	 1.9500000000e+001	 5.02788e-006
314	 1.9562500000e+001	 4.75170e-006
315	 1.9625000000e+001	 4.74472e-006
316	 1.9687500000e+001	 4.44053e-006
317	 1.9750000000e+001	 4.55184e-006
318	 1.9812500000e+001	 4.05264e-006
319	 1.9875000000e+001	 4.16905e-006
320	 1.9937500000e+001	 3.81392e-006
321	 2.0000000000e+001	 3.62454e-006
322	 2.0062500000e+001	 3.48641e-006
323	 2.0125000000e+001	 3.50293e-006
324	 2.0187500000e+001	 3.21494e-006
325	 2.0250000000e+001	 3.38468e-006
326	 2.0312500000e+001	 3.39616e-006
327	 2.0375000000e+001	 3.12510e-006
328	 2.0437500000e+001	 3.20649e-006
329	 2.0500000000e+001	 2.84476e-006
330	 2.0562500000e+001	 2.74615e-006
331	 2.0625000000e+001	 2.69384e-006
332	 2.0687500000e+001	 2.13939e-006
333	 2.0750000000e+001	 2.39965e-006
334	 2.0812500000e+001	 1.81183e-006
335	 2.0875000000e+001	 1.48129e-006
336	 2.0937500000e+001	 1.33289e-006
337	 2.1000000000e+001	 1.05227e-006
338	 2.1062500000e+001	 9.80004e-007
339	 2.1125000000e+001	 9.89204e-007
340	 2.1187500000e+001	 9.59137e-007
341	 2.1250000000e+001	 1.12086e-006
342	 2.1312500000e+001	 1.24479e-006
343	 2.1375000000e+001	 1.82503e-006
344	 2.1437500000e+001	 1.69820e-006
345	 2.1500000000e+001	 2.12367e-006
346	 2.1562500000e+001	 2.51315e-006
347	 2.1625000000e+001	 2.81917e-006
348	 2.1687500000e+001	 3.00973e-006
349	 2.1750000000e+001	 2.96797e-006
350	 2.1812500000e+001	 2.69242e-006
351	 2.1875000000e+001	 2.45984e-006
352	 2.1937500000e+001	 2.78490e-006
353	 2.2000000000e+001	 2.72822e-006
354	 2.2062500000e+001	 2.60419e-006
355	 2.2125000000e+001	 2.34610e-006
356	 2.2187500000e+001	 1.97499e-006
357	 2.2250000000e+001	 2.04716e-006
358	 2.2312500000e+001	 2.09677e-006
359	 2.2375000000e+001	 2.89456e-006
360	 2.2437500000e+001	 2.99548e-006
361	 2.2500000000e+001	 3.50276e-006
362	 2.2562500000e+001	 3.43540e-006
363	 2.2625000000e+001	 3.27839e-006
364	 2.2687500000e+001	 3.68492e-006
365	 2.2750000000e+001	 3.81512e-006
366	 2.2812500000e+001	 3.34024e-006
367	 2.2875000000e+001	 3.78832e-006
368	 2.2937500000e+001	 3.48917e-006
369	 2.3000000000e+001	 3.64131e-006
370	 2.3062500000e+001	 3.52005e-006
371	 2.3125000000e+001	 3.58742e-006
372	 2.3187500000e+001	 3.23437e-006
373	 2.3250000000e+001	 3.39664e-006
374	 2.3312500000e+001	 3.32356e-006
375	 2.3375000000e+001	 3.40443e-006
376	 2.3437500000e+001	 3.00041e-006
377	 2.3500000000e+001	 3.16047e-006
378	 2.3562500000e+001	 3.01563e-006
379	 2.3625000000e+001	 3.08245e-006
380	 2.3687500000e+001	 2.87267e-006
381	 2.3750000000e+001	 2.81257e-006
382	 2.3812500000e+001	 2.87436e-006
383	 2.3875000000e+001	 2.65656e-006
384	 2.3937500000e+001	 2.83177e-006
385	 2.4000000000e+001	 2.82887e-006
386	 2.4062500000e+001	 2.77056e-006
387	 2.4125000000e+001	 2.44552e-006
388	 2.4187500000e+001	 2.55169e-006
389	 2.4250000000e+001	 2.55797e-006
390	 2.4312500000e+001	 2.52185e-006
391	 2.4375000000e+001	 2.50634e-006
392	 2.4437500000e+001	 2.37147e-006
393	 2.4500000000e+001	 2.52495e-006
394	 2.4562500000e+001	 2.23839e-006
395	 2.4625000000e+001	 2.28440e-006
396	 2.4687500000e+001	 2.26709e-006
397	 2.4750000000e+001	 2.27255e-006
398	 2.4812500000e+001	 2.09622e-006
399	 2.4875000000e+001	 2.22501e-006
400	 2.4937500000e+001	 2.16569e-006
401	 2.5000000000e+001	 2.09326e-006
402	 2.5062500000e+001	 2.18276e-006
403	 2.5125000000e+001	 2.23134e-006
404	 2.5187500000e+001	 2.11880e-006
405	 2.5250000000e+001	 2.12911e-006
406	 2.5312500000e+001	 2.23353e-006
407	 2.5375000000e+001	 2.12132e-006
408	 2.5437500000e+001	 2.20635e-006
409	 2.5500000000e+001	 2.32832e-006
410	 2.5562500000e+001	 2.17412e-006
411	 2.5625000000e+001	 2.19887e-006
412	 2.5687500000e+001	 2.35306e-006
413	 2.5750000000e+001	 2.30627e-006
414	 2.5812500000e+001	 2.26677e-006
415	 2.5875000000e+001	 2.56423e-006
416	 2.5937500000e+001	 2.41195e-006
417	 2.6000000000e+001	 2.38799e-006
418	 2.6062500000e+001	 2.66180e-006
419	 2.6125000000e+001	 2.46786e-006
420	 2.6187500000e+001	 2.47623e-006
421	 2.6250000000e+001	 2.51193e-006
422	 2.6312500000e+001	 2.43076e-006
423	 2.6375000000e+001	 2.50176e-006
424	 2.6437500000e+001	 2.55749e-006
425	 2.6500000000e+001	 2.55881e-006
426	 2.6562500000e+001	 2.35049e-006
427	 2.6625000000e+001	 2.50498e-006
428	 2.6687500000e+001	 2.44625e-006
429	 2.6750000000e+001	 2.26916e-006
430	 2.6812500000e+001	 2.48179e-006
431	 2.6875000000e+001	 2.21676e-006
432	 2.6937500000e+001	 2.28004e-006
433	 2.7000000000e+001	 2.22302e-006
434	 2.7062500000e+001	 2.08537e-006
435	 2.7125000000e+001	 2.11182e-006
436	 2.7187500000e+001	 2.04824e-006
437	 2.7250000000e+001	 1.93575e-006
438	 2.7312500000e+001	 1.92291e-006
439	 2.7375000000e+001	 1.89500e-006
440	 2.7437500000e+001	 1.76837e-006
441	 2.7500000000e+001	 1.92888e-006
442	 2.7562500000e+001	 1.54106e-006
443	 2.7625000000e+001	 1.67508e-006
444	 2.7687500000e+001	 1.72794e-006
445	 2.7750000000e+001	 1.50029e-006
446	 2.7812500000e+001	 1.71962e-006
447	 2.7875000000e+001	 1.55779e-006
448	 2.7937500000e+001	 1.53133e-006
449	 2.8000000000e+001	 1.50375e-006
450	 2.8062500000e+001	 1.55690e-006
451	 2.8125000000e+001	 1.48985e-006
452	 2.8187500000e+001	 1.63408e-006
453	 2.8250000000e+001	 1.52955e-006
454	 2.8312500000e+001	 1.54065e-006
455	 2.8375000000e+001	 1.67286e-006
456	 2.8437500000e+001	 1.46009e-006
457	 2.8500000000e+001	 1.69722e-006
458	 2.8562500000e+001	 1.66427e-006
459	 2.8625000000e+001	 1.57845e-006
460	 2.8687500000e+001	 1.69467e-006
461	 2.8750000000e+001	 1.65270e-006
462	 2.8812500000e+001	 1.66175e-006
463	 2.8875000000e+001	 1.66607e-006
464	 2.8937500000e+001	 1.71891e-006
465	 2.9000000000e+001	 1.71530e-006
466	 2.9062500000e+001	 1.76011e-006
467	 2.9125000000e+001	 1.66629e-006
468	 2.9187500000e+001	 1.70006e-006
469	 2.9250000000e+001	 1.65447e-006
470	 2.9312500000e+001	 1.62584e-006
471	 2.9375000000e+001	 1.84688e-006
472	 2.9437500000e+001	 1.56449e-006
473	 2.9500000000e+001	 1.77149e-006
474	 2.9562500000e+001	 1.62757e-006
475	 2.9625000000e+001	 1.69072e-006
476	 2.9687500000e+001	 1.58842e-006
477	 2.9750000000e+001	 1.47995e-006
478	 2.9812500000e+001	 1.60851e-006
479	 2.9875000000e+001	 1.55330e-006
480	 2.9937500000e+001	 1.42811e-006
481	 3.0000000000e+001	 1.65260e-006
482	 3.0062500000e+001	 1.47821e-006
483	 3.0125000000e+001	 1.43725e-006
484	 3.0187500000e+001	 1.50551e-006
485	 3.0250000000e+001	 1.52466e-006
486	 3.0312500000e+001	 1.45033e-006
487	 3.0375000000e+001	 1.60316e-006
488	 3.0437500000e+001	 1.45039e-006
489	 3.0500000000e+001	 1.42900e-006
490	 3.0562500000e+001	 1.41315e-006
491	 3.0625000000e+001	 1.51023e-006
492	 3.0687500000e+001	 1.36063e-006
493	 3.0750000000e+001	 1.55324e-006
494	 3.0812500000e+001	 1.39732e-006
495	 3.0875000000e+001	 1.54608e-006
496	 3.0937500000e+001	 1.48363e-006
497	 3.1000000000e+001	 1.35996e-006
498	 3.1062500000e+001	 1.51321e-006
499	 3.1125000000e+001	 1.44538e-006
500	 3.1187500000e+001	 1.44611e-006
501	 3.1250000000e+001	 1.45931e-006
502	 3.1312500000e+001	 1.39906e-006
503	 3.1375000000e+001	 1.32895e-006
504	 3.1437500000e+001	 1.46680e-006
505	 3.1500000000e+001	 1.43132e-006
506	 3.1562500000e+001	 1.29420e-006
507	 3.1625000000e+001	 1.37552e-006
508	 3.1687500000e+001	 1.36168e-006
509	 3.1750000000e+001	 1.21682e-006
510	 3.1812500000e+001	 1.37812e-006
511	 3.1875000000e+001	 1.34469e-006
512	 3.1937500000e+001	 1.27994e-006
513	 3.2000000000e+001	 1.35843e-006
514	 3.2062500000e+001	 1.26295e-006
515	 3.2125000000e+001	 1.30338e-006
516	 3.2187500000e+001	 1.27111e-006
517	 3.2250000000e+001	 1.34592e-006
518	 3.2312500000e+001	 1.25624e-006
519	 3.2375000000e+001	 1.38973e-006
520	 3.2437500000e+001	 1.27966e-006
521	 3.2500000000e+001	 1.38401e-006
522	 3.2562500000e+001	 1.25888e-006
523	 3.2625000000e+001	 1.34071e-006
524	 3.2687500000e+001	 1.26440e-006
525	 3.2750000000e+001	 1.37164e-006
526	 3.2812500000e+001	 1.29723e-006
527	 3.2875000000e+001	 1.28027e-006
528	 3.2937500000e+001	 1.34944e-006
529	 3.3000000000e+001	 1.26151e-006
530	 3.3062500000e+001	 1.24189e-006
531	 3.3125000000e+001	 1.27899e-006
532	 3.3187500000e+001	 1.19817e-006
533	 3.3250000000e+001	 1.21018e-006
534	 3.3312500000e+001	 1.14701e-006
535	 3.3375000000e+001	 1.08843e-006
536	 3.3437500000e+001	 1.09047e-006
537	 3.3500000000e+001	 1.03561e-006
538	 3.3562500000e+001	 1.06118e-006
539	 3.3625000000e+001	 9.78709e-007
540	 3.3687500000e+001	 1.01945e-006
541	 3.3750000000e+001	 1.00153e-006
542	 3.3812500000e+001	 8.51047e-007
543	 3.3875000000e+001	 9.92328e-007
544	 3.3937500000e+001	 7.93445e-007
545	 3.4000000000e+001	 9.00982e-007
546	 3.4062500000e+001	 7.12010e-007
547	 3.4125000000e+001	 7.46273e-007
548	 3.4187500000e+001	 7.68515e-007
549	 3.4250000000e+001	 7.53280e-007
550	 3.4312500000e+001	 6.83087e-007
551	 3.4375000000e+001	 7.31535e-007
552	 3.4437500000e+001	 6.92819e-007
553	 3.4500000000e+001	 8.05849e-007
554	 3.4562500000e+001	 8.06734e-007
555	 3.4625000000e+001	 8.26113e-007
556	 3.4687500000e+001	 8.85275e-007
557	 3.4750000000e+001	 8.56403e-007
558	 3.4812500000e+001	 9.22643e-007
559	 3.4875000000e+001	 9.34488e-007
560	 3.4937500000e+001	 1.00413e-006
561	 3.5000000000e+001	 9.80167e-007
562	 3.5062500000e+001	 9.49302e-007
563	 3.5125000000e+001	 9.99376e-007
564	 3.5187500000e+001	 9.44259e-007
565	 3.5250000000e+001	 1.00886e-006
566	 3.5312500000e+001	 9.80025e-007
567	 3.5375000000e+001	 9.60170e-007
568	 3.5437500000e+001	 9.81565e-007
569	 3.5500000000e+001	 9.48390e-007
570	 3.5562500000e+001	 9.99359e-007
571	 3.5625000000e+001	 1.00448e-006
572	 3.5687500000e+001	 9.56450e-007
573	 3.5750000000e+001	 9.81004e-007
574	 3.5812500000e+001	 9.41097e-007
575	 3.5875000000e+001	 9.52492e-007
576	 3.5937500000e+001	 9.51907e-007
577	 3.6000000000e+001	 9.95300e-007
578	 3.6062500000e+001	 9.16448e-007
579	 3.6125000000e+001	 9.24065e-007
580	 3.6187500000e+001	 7.99629e-007
581	 3.6250000000e+001	 9.22404e-007
582	 3.6312500000e+001	 8.55984e-007
583	 3.6375000000e+001	 8.91691e-007
584	 3.6437500000e+001	 7.80401e-007
585	 3.6500000000e+001	 7.44586e-007
586	 3.6562500000e+001	 8.51812e-007
587	 3.6625000000e+001	 8.20183e-007
588	 3.6687500000e+001	 8.77532e-007
589	 3.6750000000e+001	 8.57408e-007
590	 3.6812500000e+001	 7.89524e-007
591	 3.6875000000e+001	 7.42362e-007
592	 3.6937500000e+001	 7.52323e-007
593	 3.7000000000e+001	 6.80261e-007
594	 3.7062500000e+001	 7.62406e-007
595	 3.7125000000e+001	 7.13304e-007
596	 3.7187500000e+001	 7.44916e-007
597	 3.7250000000e+001	 7.16949e-007
598	 3.7312500000e+001	 7.83731e-007
599	 3.7375000000e+001	 7.94213e-007
600	 3.7437500000e+001	 7.01305e-007
601	 3.7500000000e+001	 7.22938e-007
602	 3.7562500000e+001	 7.74207e-007
603	 3.7625000000e+001	 8.45765e-007
604	 3.7687500000e+001	 7.25305e-007
605	 3.7750000000e+001	 7.31930e-007
606	 3.7812500000e+001	 7.50300e-007
607	 3.7875000000e+001	 7.60020e-007
608	 3.7937500000e+001	 8.16371e-007
609	 3.8000000000e+001	 7.53860e-007
610	 3.8062500000e+001	 8.12608e-007
611	 3.8125000000e+001	 7.23512e-007
612	 3.8187500000e+001	 7.50966e-007
613	 3.8250000000e+001	 8.09449e-007
614	 3.8312500000e+001	 6.90444e-007
615	 3.8375000000e+001	 8.30174e-007
616	 3.8437500000e+001	 7.26947e-007
617	 3.8500000000e+001	 6.85413e-007
618	 3.8562500000e+001	 7.09510e-007
619	 3.8625000000e+001	 7.63161e-007
620	 3.8687500000e+001	 7.10676e-007
621	 3.8750000000e+001	 6.90063e-007
622	 3.8812500000e+001	 6.57063e-007
623	 3.8875000000e+001	 6.67730e-007
624	 3.8937500000e+001	 7.07669e-007
625	 3.9000000000e+001	 6.05385e-007
626	 3.9062500000e+001	 6.43124e-007
627	 3.9125000000e+001	 6.66771e-007
628	 3.9187500000e+001	 5.66657e-007
629	 3.9250000000e+001	 6.55030e-007
630	 3.9312500000e+001	 5.75650e-007
631	 3.9375000000e+001	 6.09813e-007
632	 3.9437500000e+001	 5.77760e-007
633	 3.9500000000e+001	 5.25185e-007
634	 3.9562500000e+001	 5.58243e-007
635	 3.9625000000e+001	 5.95773e-007
636	 3.9687500000e+001	 5.32680e-007
637	 3.9750000000e+001	 5.87730e-007
638	 3.9812500000e+001	 5.34694e-007
639	 3.9875000000e+001	 5.41326e-007
640	 3.9937500000e+001	 5.79282e-007
641	 4.0000000000e+001	 5.58115e-007
642	 4.0062500000e+001	 5.05793e-007
643	 4.0125000000e+001	 6.07149e-007
644	 4.0187500000e+001	 5.43518e-007
645	 4.0250000000e+001	 5.46834e-007
646	 4.0312500000e+001	 5.45786e-007
647	 4.0375000000e+001	 5.52864e-007
648	 4.0437500000e+001	 5.39762e-007
649	 4.0500000000e+001	 6.13869e-007
650	 4.0562500000e+001	 5.23539e-007
651	 4.0625000000e+001	 5.54791e-007
652	 4.0687500000e+001	 5.81677e-007
653	 4.0750000000e+001	 5.21465e-007
654	 4.0812500000e+001	 5.36069e-007
655	 4.0875000000e+001	 5.66583e-007
656	 4.0937500000e+001	 5.88836e-007
657	 4.1000000000e+001	 5.16180e-007
658	 4.1062500000e+001	 5.77868e-007
659	 4.1125000000e+001	 5.60666e-007
660	 4.1187500000e+001	 5.17921e-007
661	 4.1250000000e+001	 6.07722e-007
662	 4.1312500000e+001	 5.22091e-007
663	 4.1375000000e+001	 5.61528e-007
664	 4.1437500000e+001	 5.68398e-007
665	 4.1500000000e+001	 5.04519e-007
666	 4.1562500000e+001	 6.27067e-007
667	 4.1625000000e+001	 5.04072e-007
668	 4.1687500000e+001	 5.30051e-007
669	 4.1750000000e+001	 5.88026e-007
670	 4.1812500000e+001	 5.05088e-007
671	 4.1875000000e+001	 5.18324e-007
672	 4.1937500000e+001	 5.57793e-007
673	 4.2000000000e+001	 5.14277e-007
674	 4.2062500000e+001	 5.64684e-007
675	 4.2125000000e+001	 4.68590e-007
676	 4.2187500000e+001	 5.12820e-007
677	 4.2250000000e+001	 5.37717e-007
678	 4.2312500000e+001	 5.01893e-007
679	 4.2375000000e+001	 5.35619e-007
680	 4.2437500000e+001	 5.31484e-007
681	 4.2500000000e+001	 4.83193e-007
682	 4.2562500000e+001	 4.80359e-007
683	 4.2625000000e+001	 4.87761e-007
684	 4.2687500000e+001	 5.30787e-007
685	 4.2750000000e+001	 4.83804e-007
686	 4.2812500000e+001	 5.01691e-007
687	 4.2875000000e+001	 4.77071e-007
688	 4.2937500000e+001	 4.66853e-007
689	 4.3000000000e+001	 4.98965e-007
690	 4.3062500000e+001	 4.53985e-007
691	 4.3125000000e+001	 4.81119e-007
692	 4.3187500000e+001	 4.52888e-007
693	 4.3250000000e+001	 4.98444e-007
694	 4.3312500000e+001	 4.29884e-007
695	 4.3375000000e+001	 5.09792e-007
696	 4.3437500000e+001	 4.44318e-007
697	 4.3500000000e+001	 4.28885e-007
698	 4.3562500000e+001	 4.59393e-007
699	 4.3625000000e+001	 4.85354e-007
700	 4.3687500000e+001	 4.30067e-007
701	 4.3750000000e+001	 4.48526e-007
702	 4.3812500000e+001	 4.76590e-007
703	 4.3875000000e+001	 3.53155e-007
704	 4.3937500000e+001	 4.78810e-007
705	 4.4000000000e+001	 4.69832e-007
706	 4.4062500000e+001	 4.18044e-007
707	 4.4125000000e+001	 4.99077e-007
708	 4.4187500000e+001	 4.18524e-007
709	 4.4250000000e+001	 4.30858e-007
710	 4.4312500000e+001	 4.59623e-007
711	 4.4375000000e+001	 4.17877e-007
712	 4.4437500000e+001	 4.68626e-007
713	 4.4500000000e+001	 4.03464e-007
714	 4.4562500000e+001	 4.56808e-007
715	 4.4625000000e+001	 3.69874e-007
716	 4.4687500000e+001	 4.51074e-007
717	 4.4750000000e+001	 4.28079e-007
718	 4.4812500000e+001	 4.04825e-007
719	 4.4875000000e+001	 4.58399e-007
720	 4.4937500000e+001	 4.15841e-007
721	 4.5000000000e+001	 4.24994e-007
722	 4.5062500000e+001	 5.15687e-007
723	 4.5125000000e+001	 3.78572e-007
724	 4.5187500000e+001	 4.05359e-007
725	 4.5250000000e+001	 4.74375e-007
726	 4.5312500000e+001	 4.15914e-007
727	 4.5375000000e+001	 4.38800e-007
728	 4.5437500000e+001	 4.51032e-007
729	 4.5500000000e+001	 4.38837e-007
730	 4.5562500000e+001	 4.40513e-007
731	 4.5625000000e+001	 4.63109e-007
732	 4.5687500000e+001	 4.03051e-007
733	 4.5750000000e+001	 4.53285e-007
734	 4.5812500000e+001	 4.23306e-007
735	 4.5875000000e+001	 4.65872e-007
736	 4.5937500000e+001	 4.46287e-007
737	 4.6000000000e+001	 4.44090e-007
738	 4.6062500000e+001	 4.80195e-007
739	 4.6125000000e+001	 4.19333e-007
740	 4.6187500000e+001	 4.56237e-007
741	 4.6250000000e+001	 4.52647e-007
742	 4.6312500000e+001	 4.80706e-007
743	 4.6375000000e+001	 4.29705e-007
744	 4.6437500000e+001	 4.81819e-007
745	 4.6500000000e+001	 4.05841e-007
746	 4.6562500000e+001	 4.71633e-007
747	 4.6625000000e+001	 4.44214e-007
748	 4.6687500000e+001	 4.25073e-007
749	 4.6750000000e+001	 4.55050e-007
750	 4.6812500000e+001	 4.44137e-007
751	 4.6875000000e+001	 4.07116e-007
752	 4.6937500000e+001	 4.40163e-007
753	 4.7000000000e+001	 4.54835e-007
754	 4.7062500000e+001	 3.93457e-007
755	 4.7125000000e+001	 4.30192e-007
756	 4.7187500000e+001	 4.12890e-007
757	 4.7250000000e+001	 4.33828e-007
758	 4.7312500000e+001	 4.01989e-007
759	 4.7375000000e+001	 4.49085e-007
760	 4.7437500000e+001	 4.04976e-007
761	 4.7500000000e+001	 4.37713e-007
762	 4.7562500000e+001	 4.40931e-007
763	 4.7625000000e+001	 3.88111e-007
764	 4.7687500000e+001	 4.32011e-007
765	 4.7750000000e+001	 4.16988e-007
766	 4.7812500000e+001	 4.51243e-007
767	 4.7875000000e+001	 4.36023e-007
768	 4.7937500000e+001	 3.78038e-007
769	 4.8000000000e+001	 4.72349e-007
770	 4.8062500000e+001	 4.24420e-007
771	 4.8125000000e+001	 4.28311e-007
772	 4.8187500000e+001	 4.19132e-007
773	 4.8250000000e+001	 3.71605e-007
774	 4.8312500000e+001	 4.20112e-007
775	 4.8375000000e+001	 3.77514e-007
776	 4.8437500000e+001	 3.95693e-007
777	 4.8500000000e+001	 3.83825e-007
778	 4.8562500000e+001	 4.09775e-007
779	 4.8625000000e+001	 3.78838e-007
780	 4.8687500000e+001	 3.61360e-007
781	 4.8750000000e+001	 4.30142e-007
782	 4.8812500000e+001	 3.72811e-007
783	 4.8875000000e+001	 4.21447e-007
784	 4.8937500000e+001	 3.89934e-007
785	 4.9000000000e+001	 4.19096e-007
786	 4.9062500000e+001	 4.13175e-007
787	 4.9125000000e+001	 3.69857e-007
788	 4.9187500000e+001	 4.26547e-007
789	 4.9250000000e+001	 3.91559e-007
790	 4.9312500000e+001	 3.42901e-007
791	 4.9375000000e+001	 3.84642e-007
792	 4.9437500000e+001	 3.38975e-007
793	 4.9500000000e+001	 3.73965e-007
794	 4.9562500000e+001	 3.24653e-007
795	 4.9625000000e+001	 3.64734e-007
796	 4.9687500000e+001	 3.28696e-007
797	 4.9750000000e+001	 3.23042e-007
798	 4.9812500000e+001	 3.69005e-007
799	 4.9875000000e+001	 3.03652e-007
800	 4.9937500000e+001	 3.34880e-007
801	 5.0000000000e+001	 3.42075e-007
802	 5.0062500000e+001	 3.17827e-007
803	 5.0125000000e+001	 3.20415e-007
804	 5.0187500000e+001	 3.63947e-007
805	 5.0250000000e+001	 3.12535e-007
806	 5.0312500000e+001	 3.75527e-007
807	 5.0375000000e+001	 3.07096e-007
808	 5.0437500000e+001	 3.06131e-007
809	 5.0500000000e+001	 3.60374e-007
810	 5.0562500000e+001	 3.28679e-007
811	 5.0625000000e+001	 3.23184e-007
812	 5.0687500000e+001	 3.10764e-007
813	 5.0750000000e+001	 3.08160e-007
814	 5.0812500000e+001	 3.18848e-007
815	 5.0875000000e+001	 3.15112e-007
816	 5.0937500000e+001	 3.16973e-007
817	 5.1000000000e+001	 2.99782e-007
818	 5.1062500000e+001	 3.31280e-007
819	 5.1125000000e+001	 2.55654e-007
820	 5.1187500000e+001	 3.24315e-007
821	 5.1250000000e+001	 2.90137e-007
822	 5.1312500000e+001	 3.33686e-007
823	 5.1375000000e+001	 3.06023e-007
824	 5.1437500000e+001	 2.97976e-007
825	 5.1500000000e+001	 3.10384e-007
826	 5.1562500000e+001	 2.55474e-007
827	 5.1625000000e+001	 2.68552e-007
828	 5.1687500000e+001	 2.89592e-007
829	 5.1750000000e+001	 2.97465e-007
830	 5.1812500000e+001	 2.41732e-007
831	 5.1875000000e+001	 3.20505e-007
832	 5.1937500000e+001	 2.84340e-007
833	 5.2000000000e+001	 2.83766e-007
834	 5.2062500000e+001	 2.70943e-007
835	 5.2125000000e+001	 2.66215e-007
836	 5.2187500000e+001	 2.64650e-007
837	 5.2250000000e+001	 2.88424e-007
838	 5.2312500000e+001	 2.80018e-007
839	 5.2375000000e+001	 2.86050e-007
840	 5.2437500000e+001	 2.50399e-007
841	 5.2500000000e+001	 2.58422e-007
842	 5.2562500000e+001	 2.77331e-007
843	 5.2625000000e+001	 2.74859e-007
844	 5.2687500000e+001	 2.93113e-007
845	 5.2750000000e+001	 2.63865e-007
846	 5.2812500000e+001	 2.65272e-007
847	 5.2875000000e+001	 2.79976e-007
848	 5.2937500000e+001	 2.96076e-007
849	 5.3000000000e+001	 2.33903e-007
850	 5.3062500000e+001	 3.05184e-007
851	 5.3125000000e+001	 2.35768e-007
852	 5.3187500000e+001	 2.79043e-007
853	 5.3250000000e+001	 2.41200e-007
854	 5.3312500000e+001	 3.17886e-007
855	 5.3375000000e+001	 2.28361e-007
856	 5.3437500000e+001	 2.74801e-007
857	 5.3500000000e+001	 2.46772e-007
858	 5.3562500000e+001	 2.95199e-007
859	 5.3625000000e+001	 2.22483e-007
860	 5.3687500000e+001	 2.78199e-007
861	 5.3750000000e+001	 2.30199e-007
862	 5.3812500000e+001	 2.60277e-007
863	 5.3875000000e+001	 2.53855e-007
864	 5.3937500000e+001	 2.78579e-007
865	 5.4000000000e+001	 2.39527e-007
866	 5.4062500000e+001	 2.44182e-007
867	 5.4125000000e+001	 2.34153e-007
868	 5.4187500000e+001	 2.68228e-007
869	 5.4250000000e+001	 2.11653e-007
870	 5.4312500000e+001	 2.50508e-007
871	 5.4375000000e+001	 2.54252e-007
872	 5.4437500000e+001	 2.40102e-007
873	 5.4500000000e+001	 2.54782e-007
874	 5.4562500000e+001	 2.47859e-007
875	 5.4625000000e+001	 2.20734e-007
876	 5.4687500000e+001	 2.40444e-007
877	 5.4750000000e+001	 2.34656e-007
878	 5.4812500000e+001	 2.49945e-007
879	 5.4875000000e+001	 2.54308e-007
880	 5.4937500000e+001	 2.48316e-007
881	 5.5000000000e+001	 2.35126e-007
882	 5.5062500000e+001	 2.38317e-007
883	 5.5125000000e+001	 2.58197e-007
884	 5.5187500000e+001	 2.36544e-007
885	 5.5250000000e+001	 2.41905e-007
886	 5.5312500000e+001	 2.52951e-007
887	 5.5375000000e+001	 2.39965e-007
888	 5.5437500000e+001	 2.50325e-007
889	 5.5500000000e+001	 2.49165e-007
890	 5.5562500000e+001	 2.27364e-007
891	 5.5625000000e+001	 2.52505e-007
892	 5.5687500000e+001	 2.37697e-007
893	 5.5750000000e+001	 2.59285e-007
894	 5.5812500000e+001	 2.27983e-007
895	 5.5875000000e+001	 2.69957e-007
896	 5.5937500000e+001	 2.14108e-007
897	 5.6000000000e+001	 2.59872e-007
898	 5.6062500000e+001	 2.30634e-007
899	 5.6125000000e+001	 2.54103e-007
900	 5.6187500000e+001	 2.40127e-007
901	 5.6250000000e+001	 2.49725e-007
902	 5.6312500000e+001	 2.32020e-007
903	 5.6375000000e+001	 2.45312e-007
904	 5.6437500000e+001	 2.54626e-007
905	 5.6500000000e+001	 2.44093e-007
906	 5.6562500000e+001	 2.74588e-007
907	 5.6625000000e+001	 2.42001e-007
908	 5.6687500000e+001	 2.35358e-007
909	 5.6750000000e+001	 2.74830e-007
910	 5.6812500000e+001	 2.59901e-007
911	 5.6875000000e+001	 2.32712e-007
912	 5.6937500000e+001	 2.63974e-007
913	 5.7000000000e+001	 2.53901e-007
914	 5.7062500000e+001	 2.53222e-007
915	 5.7125000000e+001	 2.68626e-007
916	 5.7187500000e+001	 2.52898e-007
917	 5.7250000000e+001	 2.39232e-007
918	 5.7312500000e+001	 2.81364e-007
919	 5.7375000000e+001	 2.38156e-007
920	 5.7437500000e+001	 2.27285e-007
921	 5.7500000000e+001	 2.73938e-007
922	 5.7562500000e+001	 2.37687e-007
923	 5.7625000000e+001	 2.76705e-007
924	 5.7687500000e+001	 2.23422e-007
925	 5.7750000000e+001	 2.56025e-007
926	 5.7812500000e+001	 2.53253e-007
927	 5.7875000000e+001	 2.33079e-007
928	 5.7937500000e+001	 2.50963e-007
929	 5.8000000000e+001	 2.64368e-007
930	 5.8062500000e+001	 2.46785e-007
931	 5.8125000000e+001	 2.30305e-007
932	 5.8187500000e+001	 2.39421e-007
933	 5.8250000000e+001	 2.45691e-007
934	 5.8312500000e+001	 2.51780e-007
935	 5.8375000000e+001	 2.13713e-007
936	 5.8437500000e+001	 2.44061e-007
937	 5.8500000000e+001	 2.18529e-007
938	 5.8562500000e+001	 2.31674e-007
939	 5.8625000000e+001	 2.39787e-007
940	 5.8687500000e+001	 2.41739e-007
941	 5.8750000000e+001	 2.23309e-007
942	 5.8812500000e+001	 2.32217e-007
943	 5.8875000000e+001	 2.31772e-007
944	 5.8937500000e+001	 2.44202e-007
945	 5.9000000000e+001	 2.27503e-007
946	 5.9062500000e+001	 2.27052e-007
947	 5.9125000000e+001	 2.28324e-007
948	 5.9187500000e+001	 2.32075e-007
949	 5.9250000000e+001	 2.12154e-007
950	 5.9312500000e+001	 2.04983e-007
951	 5.9375000000e+001	 2.30913e-007
952	 5.9437500000e+001	 1.96309e-007
953	 5.9500000000e+001	 2.22828e-007
954	 5.9562500000e+001	 2.15648e-007
955	 5.9625000000e+001	 2.14442e-007
956	 5.9687500000e+001	 2.07014e-007
957	 5.9750000000e+001	 2.25170e-007
958	 5.9812500000e+001	 2.02580e-007
959	 5.9875000000e+001	 2.21062e-007
960	 5.9937500000e+001	 2.06876e-007
961	 6.0000000000e+001	 2.40036e-007
962	 6.0062500000e+001	 2.07470e-007
963	 6.0125000000e+001	 2.34402e-007
964	 6.0187500000e+001	 1.77860e-007
965	 6.0250000000e+001	 2.18175e-007
966	 6.0312500000e+001	 2.44031e-007
967	 6.0375000000e+001	 2.15591e-007
968	 6.0437500000e+001	 2.11861e-007
969	 6.0500000000e+001	 2.23254e-007
970	 6.0562500000e+001	 1.86355e-007
971	 6.0625000000e+001	 2.38405e-007
972	 6.0687500000e+001	 2.15518e-007
973	 6.0750000000e+001	 2.03012e-007
974	 6.0812500000e+001	 2.28056e-007
975	 6.0875000000e+001	 2.14694e-007
976	 6.0937500000e+001	 1.96601e-007
977	 6.1000000000e+001	 2.08017e-007
978	 6.1062500000e+001	 1.84723e-007
979	 6.1125000000e+001	 2.32916e-007
980	 6.1187500000e+001	 1.91865e-007
981	 6.1250000000e+001	 2.05392e-007
982	 6.1312500000e+001	 1.90222e-007
983	 6.1375000000e+001	 2.08782e-007
984	 6.1437500000e+001	 2.07837e-007
985	 6.1500000000e+001	 1.96807e-007
986	 6.1562500000e+001	 2.20684e-007
987	 6.1625000000e+001	 2.03977e-007
988	 6.1687500000e+001	 1.87692e-007
989	 6.1750000000e+001	 2.01107e-007
990	 6.1812500000e+001	 1.94644e-007
991	 6.1875000000e+001	 1.92722e-007
992	 6.1937500000e+001	 2.03914e-007
993	 6.2000000000e+001	 1.95457e-007
994	 6.2062500000e+001	 1.88555e-007
995	 6.2125000000e+001	 1.77525e-007
996	 6.2187500000e+001	 1.75713e-007
997	 6.2250000000e+001	 1.94130e-007
998	 6.2312500000e+001	 1.77974e-007
999	 6.2375000000e+001	 1.79301e-007
1000	 6.2437500000e+001	 1.69665e-007
1001	 6.2500000000e+001	 1.61308e-007
1002	 6.2562500000e+001	 1.79114e-007
1003	 6.2625000000e+001	 1.73279e-007
1004	 6.2687500000e+001	 1.62395e-007
1005	 6.2750000000e+001	 1.68302e-007
1006	 6.2812500000e+001	 1.74639e-007
1007	 6.2875000000e+001	 1.74668e-007
1008	 6.2937500000e+001	 1.53007e-007
1009	 6.3000000000e+001	 1.87736e-007
1010	 6.3062500000e+001	 1.56379e-007
1011	 6.3125000000e+001	 1.77266e-007
1012	 6.3187500000e+001	 1.75319e-007
1013	 6.3250000000e+001	 1.63988e-007
1014	 6.3312500000e+001	 1.68835e-007
1015	 6.3375000000e+001	 1.91510e-007
1016	 6.3437500000e+001	 1.67922e-007
1017	 6.3500000000e+001	 1.67085e-007
1018	 6.3562500000e+001	 1.71647e-007
1019	 6.3625000000e+001	 1.59934e-007
1020	 6.3687500000e+001	 1.64313e-007
1021	 6.3750000000e+001	 1.74919e-007
1022	 6.3812500000e+001	 1.75077e-007
1023	 6.3875000000e+001	 1.46594e-007
1024	 6.3937500000e+001	 1.86886e-007
1025	 6.4000000000e+001	 1.51145e-007
1026	 6.4062500000e+001	 1.61303e-007
1027	 6.4125000000e+001	 1.69028e-007
1028	 6.4187500000e+001	 1.74681e-007
1029	 6.4250000000e+001	 1.51234e-007
1030	 6.4312500000e+001	 1.78949e-007
1031	 6.4375000000e+001	 1.56568e-007
1032	 6.4437500000e+001	 1.57563e-007
1033	 6.4500000000e+001	 1.69417e-007
1034	 6.4562500000e+001	 1.60080e-007
1035	 6.4625000000e+001	 1.43394e-007
1036	 6.4687500000e+001	 1.68452e-007
1037	 6.4750000000e+001	 1.77745e-007
1038	 6.4812500000e+001	 1.43220e-007
1039	 6.4875000000e+001	 1.85492e-007
1040	 6.4937500000e+001	 1.50031e-007
1041	 6.5000000000e+001	 1.45576e-007
1042	 6.5062500000e+001	 1.59689e-007
1043	 6.5125000000e+001	 1.55659e-007
1044	 6.5187500000e+001	 1.79582e-007
1045	 6.5250000000e+001	 1.43947e-007
1046	 6.5312500000e+001	 1.72629e-007
1047	 6.5375000000e+001	 1.60827e-007
1048	 6.5437500000e+001	 1.64038e-007
1049	 6.5500000000e+001	 1.50541e-007
1050	 6.5562500000e+001	 1.72425e-007
1051	 6.5625000000e+001	 1.58405e-007
1052	 6.5687500000e+001	 1.51199e-007
1053	 6.5750000000e+001	 1.65407e-007
1054	 6.5812500000e+001	 1.48749e-007
1055	 6.5875000000e+001	 1.73241e-007
1056	 6.5937500000e+001	 1.64164e-007
1057	 6.6000000000e+001	 1.77151e-007
1058	 6.6062500000e+001	 1.59417e-007
1059	 6.6125000000e+001	 1.70945e-007
1060	 6.6187500000e+001	 1.36938e-007
1061	 6.6250000000e+001	 1.64738e-007
1062	 6.6312500000e+001	 1.39463e-007
1063	 6.6375000000e+001	 1.61505e-007
1064	 6.6437500000e+001	 1.61851e-007
1065	 6.6500000000e+001	 1.73118e-007
1066	 6.6562500000e+001	 1.54015e-007
1067	 6.6625000000e+001	 1.41593e-007
1068	 6.6687500000e+001	 1.76631e-007
1069	 6.6750000000e+001	 1.50926e-007
1070	 6.6812500000e+001	 1.60567e-007
1071	 6.6875000000e+001	 1.33528e-007
1072	 6.6937500000e+001	 1.60678e-007
1073	 6.7000000000e+001	 1.92250e-007
1074	 6.7062500000e+001	 1.31250e-007
1075	 6.7125000000e+001	 1.59562e-007
1076	 6.7187500000e+001	 1.48256e-007
1077	 6.7250000000e+001	 1.60603e-007
1078	 6.7312500000e+001	 1.41350e-007
1079	 6.7375000000e+001	 1.56031e-007
1080	 6.7437500000e+001	 1.71402e-007
1081	 6.7500000000e+001	 1.51919e-007
1082	 6.7562500000e+001	 1.75692e-007
1083	 6.7625000000e+001	 1.37260e-007
1084	 6.7687500000e+001	 1.47406e-007
1085	 6.7750000000e+001	 1.68555e-007
1086	 6.7812500000e+001	 1.45936e-007
1087	 6.7875000000e+001	 1.44335e-007
1088	 6.7937500000e+001	 1.57336e-007
1089	 6.8000000000e+001	 1.71311e-007
1090	 6.8062500000e+001	 1.41821e-007
1091	 6.8125000000e+001	 1.55217e-007
1092	 6.8187500000e+001	 1.53437e-007
1093	 6.8250000000e+001	 1.44239e-007
1094	 6.8312500000e+001	 1.48005e-007
1095	 6.8375000000e+001	 1.52215e-007
1096	 6.8437500000e+001	 1.48733e-007
1097	 6.8500000000e+001	 1.58684e-007
1098	 6.8562500000e+001	 1.39888e-007
1099	 6.8625000000e+001	 1.42734e-007
1100	 6.8687500000e+001	 1.45540e-007
1101	 6.8750000000e+001	 1.50839e-007
1102	 6.8812500000e+001	 1.43649e-007
1103	 6.8875000000e+001	 1.45733e-007
1104	 6.8937500000e+001	 1.43899e-007
1105	 6.9000000000e+001	 1.35720e-007
1106	 6.9062500000e+001	 1.34516e-007
1107	 6.9125000000e+001	 1.45690e-007
1108	 6.9187500000e+001	 1.33133e-007
1109	 6.9250000000e+001	 1.42425e-007
1110	 6.9312500000e+001	 1.37886e-007
1111	 6.9375000000e+001	 1.42681e-007
1112	 6.9437500000e+001	 1.47649e-007
1113	 6.9500000000e+001	 1.47081e-007
1114	 6.9562500000e+001	 1.44952e-007
1115	 6.9625000000e+001	 1.30709e-007
1116	 6.9687500000e+001	 1.46844e-007
1117	 6.9750000000e+001	 1.42578e-007
1118	 6.9812500000e+001	 1.56464e-007
1119	 6.9875000000e+001	 1.50593e-007
1120	 6.9937500000e+001	 1.31968e-007
1121	 7.0000000000e+001	 1.63527e-007
1122	 7.0062500000e+001	 1.35710e-007
1123	 7.0125000000e+001	 1.42023e-007
1124	 7.0187500000e+001	 1.50305e-007
1125	 7.0250000000e+001	 1.48568e-007
1126	 7.0312500000e+001	 1.32129e-007
1127	 7.0375000000e+001	 1.47126e-007
1128	 7.0437500000e+001	 1.37177e-007
1129	 7.0500000000e+001	 1.31623e-007
1130	 7.0562500000e+001	 1.58738e-007
1131	 7.0625000000e+001	 1.32010e-007
1132	 7.0687500000e+001	 1.29502e-007
1133	 7.0750000000e+001	 1.41995e-007
1134	 7.0812500000e+001	 1.33201e-007
1135	 7.0875000000e+001	 1.48478e-007
1136	 7.0937500000e+001	 1.43957e-007
1137	 7.1000000000e+001	 1.33553e-007
1138	 7.1062500000e+001	 1.32219e-007
1139	 7.1125000000e+001	 1.44802e-007
1140	 7.1187500000e+001	 1.34830e-007
1141	 7.1250000000e+001	 1.42340e-007
1142	 7.1312500000e+001	 1.43347e-007
1143	 7.1375000000e+001	 1.32102e-007
1144	 7.1437500000e+001	 1.43622e-007
1145	 7.1500000000e+001	 1.28427e-007
1146	 7.1562500000e+001	 1.42544e-007
1147	 7.1625000000e+001	 1.35274e-007
1148	 7.1687500000e+001	 1.48023e-007
1149	 7.1750000000e+001	 1.27469e-007
1150	 7.1812500000e+001	 1.28387e-007
1151	 7.1875000000e+001	 1.33306e-007
1152	 7.1937500000e+001	 1.38789e-007
1153	 7.2000000000e+001	 1.23823e-007
1154	 7.2062500000e+001	 1.18510e-007
1155	 7.2125000000e+001	 1.42498e-007
1156	 7.2187500000e+001	 1.32941e-007
1157	 7.2250000000e+001	 1.28342e-007
1158	 7.2312500000e+001	 1.20360e-007
1159	 7.2375000000e+001	 1.43463e-007
1160	 7.2437500000e+001	 1.19754e-007
1161	 7.2500000000e+001	 1.19435e-007
1162	 7.2562500000e+001	 1.35866e-007
1163	 7.2625000000e+001	 1.26050e-007
1164	 7.2687500000e+001	 1.41638e-007
1165	 7.2750000000e+001	 1.41082e-007
1166	 7.2812500000e+001	 1.19179e-007
1167	 7.2875000000e+001	 1.39117e-007
1168	 7.2937500000e+001	 1.26893e-007
1169	 7.3000000000e+001	 1.25736e-007
1170	 7.3062500000e+001	 1.14467e-007
1171	 7.3125000000e+001	 1.37044e-007
1172	 7.3187500000e+001	 1.12631e-007
1173	 7.3250000000e+001	 1.13792e-007
1174	 7.3312500000e+001	 1.37204e-007
1175	 7.3375000000e+001	 1.23788e-007
1176	 7.3437500000e+001	 1.35707e-007
1177	 7.3500000000e+001	 1.17596e-007
1178	 7.3562500000e+001	 1.15537e-007
1179	 7.3625000000e+001	 1.27049e-007
1180	 7.3687500000e+001	 1.16822e-007
1181	 7.3750000000e+001	 1.22450e-007
1182	 7.3812500000e+001	 1.23488e-007
1183	 7.3875000000e+001	 1.31180e-007
1184	 7.3937500000e+001	 1.19620e-007
1185	 7.4000000000e+001	 1.22852e-007
1186	 7.4062500000e+001	 1.07103e-007
1187	 7.4125000000e+001	 1.40319e-007
1188	 7.4187500000e+001	 1.07755e-007
1189	 7.4250000000e+001	 1.44946e-007
1190	 7.4312500000e+001	 1.13513e-007
1191	 7.4375000000e+001	 1.02154e-007
1192	 7.4437500000e+001	 1.38019e-007
1193	 7.4500000000e+001	 1.23144e-007
1194	 7.4562500000e+001	 1.09133e-007
1195	 7.4625000000e+001	 1.32002e-007
1196	 7.4687500000e+001	 1.03529e-007
1197	 7.4750000000e+001	 1.30879e-007
1198	 7.4812500000e+001	 1.08353e-007
1199	 7.4875000000e+001	 1.22566e-007
1200	 7.4937500000e+001	 1.23341e-007
1201	 7.5000000000e+001	 1.27465e-007
1202	 7.5062500000e+001	 8.31471e-008
1203	 7.5125000000e+001	 1.34697e-007
1204	 7.5187500000e+001	 1.21094e-007
1205	 7.5250000000e+001	 9.80665e-008
1206	 7.5312500000e+001	 1.24043e-007
1207	 7.5375000000e+001	 1.05283e-007
1208	 7.5437500000e+001	 1.34105e-007
1209	 7.5500000000e+001	 9.80292e-008
1210	 7.5562500000e+001	 1.38766e-007
1211	 7.5625000000e+001	 1.03453e-007
1212	 7.5687500000e+001	 1.06133e-007
1213	 7.5750000000e+001	 1.07908e-007
1214	 7.5812500000e+001	 1.16401e-007
1215	 7.5875000000e+001	 1.10275e-007
1216	 7.5937500000e+001	 1.21003e-007
1217	 7.6000000000e+001	 1.32372e-007
1218	 7.6062500000e+001	 9.89325e-008
1219	 7.6125000000e+001	 1.14288e-007
1220	 7.6187500000e+001	 1.21245e-007
1221	 7.6250000000e+001	 1.12152e-007
1222	 7.6312500000e+001	 1.14237e-007
1223	 7.6375000000e+001	 1.14366e-007
1224	 7.6437500000e+001	 1.15403e-007
1225	 7.6500000000e+001	 1.12574e-007
1226	 7.6562500000e+001	 1.10690e-007
1227	 7.6625000000e+001	 1.26279e-007
1228	 7.6687500000e+001	 1.01567e-007
1229	 7.6750000000e+001	 1.20157e-007
1230	 7.6812500000e+001	 9.50323e-008
1231	 7.6875000000e+001	 1.19235e-007
1232	 7.6937500000e+001	 1.05707e-007
1233	 7.7000000000e+001	 1.18320e-007
1234	 7.7062500000e+001	 1.12060e-007
1235	 7.7125000000e+001	 1.14329e-007
1236	 7.7187500000e+001	 9.20418e-008
1237	 7.7250000000e+001	 1.20711e-007
1238	 7.7312500000e+001	 1.09359e-007
1239	 7.7375000000e+001	 9.97062e-008
1240	 7.7437500000e+001	 1.23237e-007
1241	 7.7500000000e+001	 1.04730e-007
1242	 7.7562500000e+001	 1.02863e-007
1243	 7.7625000000e+001	 1.25900e-007
1244	 7.7687500000e+001	 1.00468e-007
1245	 7.7750000000e+001	 1.00593e-007
1246	 7.7812500000e+001	 1.18933e-007
1247	 7.7875000000e+001	 9.82078e-008
1248	 7.7937500000e+001	 1.06517e-007
1249	 7.8000000000e+001	 1.05227e-007
1250	 7.8062500000e+001	 1.20005e-007
1251	 7.8125000000e+001	 9.07290e-008
1252	 7.8187500000e+001	 1.11946e-007
1253	 7.8250000000e+001	 9.92997e-008
1254	 7.8312500000e+001	 1.02516e-007
1255	 7.8375000000e+001	 1.01887e-007
1256	 7.8437500000e+001	 1.15813e-007
1257	 7.8500000000e+001	 9.59846e-008
1258	 7.8562500000e+001	 1.01983e-007
1259	 7.8625000000e+001	 1.05629e-007
1260	 7.8687500000e+001	 1.00641e-007
1261	 7.8750000000e+001	 1.00899e-007
1262	 7.8812500000e+001	 1.05232e-007
1263	 7.8875000000e+001	 9.18328e-008
1264	 7.8937500000e+001	 1.03896e-007
1265	 7.9000000000e+001	 1.06464e-007
1266	 7.9062500000e+001	 9.95820e-008
1267	 7.9125000000e+001	 9.81617e-008
1268	 7.9187500000e+001	 9.44616e-008
1269	 7.9250000000e+001	 1.05549e-007
1270	 7.9312500000e+001	 8.45781e-008
1271	 7.9375000000e+001	 1.10631e-007
1272	 7.9437500000e+001	 1.05948e-007
1273	 7.9500000000e+001	 9.28371e-008
1274	 7.9562500000e+001	 1.07052e-007
1275	 7.9625000000e+001	 1.01382e-007
1276	 7.9687500000e+001	 9.56688e-008
1277	 7.9750000000e+001	 1.11934e-007
1278	 7.9812500000e+001	 8.64667e-008
1279	 7.9875000000e+001	 9.90203e-008
1280	 7.9937500000e+001	 9.93145e-008
1281	 8.0000000000e+001	 9.36711e-008
1282	 8.0062500000e+001	 9.28243e-008
1283	 8.0125000000e+001	 9.62025e-008
1284	 8.0187500000e+001	 9.68348e-008
1285	 8.0250000000e+001	 1.05978e-007
1286	 8.0312500000e+001	 9.59302e-008
1287	 8.0375000000e+001	 8.37180e-008
1288	 8.0437500000e+001	 1.07685e-007
1289	 8.0500000000e+001	 9.23968e-008
1290	 8.0562500000e+001	 1.05160e-007
1291	 8.0625000000e+001	 9.25139e-008
1292	 8.0687500000e+001	 9.40512e-008
1293	 8.0750000000e+001	 9.87325e-008
1294	 8.0812500000e+001	 8.43770e-008
1295	 8.0875000000e+001	 1.01628e-007
1296	 8.0937500000e+001	 8.77916e-008
1297	 8.1000000000e+001	 9.77526e-008
1298	 8.1062500000e+001	 1.07079e-007
1299	 8.1125000000e+001	 9.19894e-008
1300	 8.1187500000e+001	 9.22791e-008
1301	 8.1250000000e+001	 9.55431e-008
1302	 8.1312500000e+001	 8.70006e-008
1303	 8.1375000000e+001	 8.99143e-008
1304	 8.1437500000e+001	 9.81676e-008
1305	 8.1500000000e+001	 9.15340e-008
1306	 8.1562500000e+001	 9.57408e-008
1307	 8.1625000000e+001	 8.77133e-008
1308	 8.1687500000e+001	 9.39126e-008
1309	 8.1750000000e+001	 1.09456e-007
1310	 8.1812500000e+001	 8.04846e-008
1311	 8.1875000000e+001	 8.36020e-008
1312	 8.1937500000e+001	 1.01277e-007
1313	 8.2000000000e+001	 8.67859e-008
1314	 8.2062500000e+001	 9.82225e-008
1315	 8.2125000000e+001	 9.52653e-008
1316	 8.2187500000e+001	 8.92099e-008
1317	 8.2250000000e+001	 8.26059e-008
1318	 8.2312500000e+001	 1.05228e-007
1319	 8.2375000000e+001	 8.20681e-008
1320	 8.2437500000e+001	 1.04014e-007
1321	 8.2500000000e+001	 8.84817e-008
1322	 8.2562500000e+001	 1.05976e-007
1323	 8.2625000000e+001	 9.66605e-008
1324	 8.2687500000e+001	 8.51078e-008
1325	 8.2750000000e+001	 8.82441e-008
1326	 8.2812500000e+001	 1.08124e-007
1327	 8.2875000000e+001	 9.28421e-008
1328	 8.2937500000e+001	 8.90160e-008
1329	 8.3000000000e+001	 8.66475e-008
1330	 8.3062500000e+001	 1.01399e-007
1331	 8.3125000000e+001	 7.55284e-008
1332	 8.3187500000e+001	 1.08830e-007
1333	 8.3250000000e+001	 8.17695e-008
1334	 8.3312500000e+001	 8.83904e-008
1335	 8.3375000000e+001	 1.02877e-007
1336	 8.3437500000e+001	 8.46156e-008
1337	 8.3500000000e+001	 9.36267e-008
1338	 8.3562500000e+001	 9.40087e-008
1339	 8.3625000000e+001	 8.50671e-008
1340	 8.3687500000e+001	 8.99609e-008
1341	 8.3750000000e+001	 9.50664e-008
1342	 8.3812500000e+001	 8.65924e-008
1343	 8.3875000000e+001	 8.98441e-008
1344	 8.3937500000e+001	 9.04008e-008
1345	 8.4000000000e+001	 9.41859e-008
1346	 8.4062500000e+001	 8.82605e-008
1347	 8.4125000000e+001	 9.25225e-008
1348	 8.4187500000e+001	 8.51749e-008
1349	 8.4250000000e+001	 8.96886e-008
1350	 8.4312500000e+001	 9.72260e-008
1351	 8.4375000000e+001	 8.85851e-008
1352	 8.4437500000e+001	 8.81320e-008
1353	 8.4500000000e+001	 8.38554e-008
1354	 8.4562500000e+001	 8.63160e-008
1355	 8.4625000000e+001	 8.93554e-008
1356	 8.4687500000e+001	 9.59915e-008
1357	 8.4750000000e+001	 8.96472e-008
1358	 8.4812500000e+001	 9.23330e-008
1359	 8.4875000000e+001	 9.02757e-008
1360	 8.4937500000e+001	 8.51827e-008
1361	 8.5000000000e+001	 8.62287e-008
1362	 8.5062500000e+001	 9.57787e-008
1363	 8.5125000000e+001	 8.76772e-008
1364	 8.5187500000e+001	 9.75756e-008
1365	 8.5250000000e+001	 8.64607e-008
1366	 8.5312500000e+001	 8.67668e-008
1367	 8.5375000000e+001	 9.14893e-008
1368	 8.5437500000e+001	 8.33705e-008
1369	 8.5500000000e+001	 9.46217e-008
1370	 8.5562500000e+001	 9.00908e-008
1371	 8.5625000000e+001	 7.93751e-008
1372	 8.5687500000e+001	 1.05017e-007
1373	 8.5750000000e+001	 9.18548e-008
1374	 8.5812500000e+001	 8.50991e-008
1375	 8.5875000000e+001	 9.16362e-008
1376	 8.5937500000e+001	 1.03472e-007
1377	 8.6000000000e+001	 8.09881e-008
1378	 8.6062500000e+001	 8.89358e-008
1379	 8.6125000000e+001	 9.65693e-008
1380	 8.6187500000e+001	 9.28410e-008
1381	 8.6250000000e+001	 8.92171e-008
1382	 8.6312500000e+001	 8.97069e-008
1383	 8.6375000000e+001	 8.53164e-008
1384	 8.6437500000e+001	 9.46165e-008
1385	 8.6500000000e+001	 9.56961e-008
1386	 8.6562500000e+001	 8.14354e-008
1387	 8.6625000000e+001	 9.38168e-008
1388	 8.6687500000e+001	 9.62123e-008
1389	 8.6750000000e+001	 8.82705e-008
1390	 8.6812500000e+001	 9.22559e-008
1391	 8.6875000000e+001	 9.72207e-008
1392	 8.6937500000e+001	 8.42224e-008
1393	 8.7000000000e+001	 8.57452e-008
1394	 8.7062500000e+001	 9.32474e-008
1395	 8.7125000000e+001	 8.42793e-008
1396	 8.7187500000e+001	 1.00275e-007
1397	 8.7250000000e+001	 8.23667e-008
1398	 8.7312500000e+001	 8.54169e-008
1399	 8.7375000000e+001	 1.01100e-007
1400	 8.7437500000e+001	 8.48105e-008
1401	 8.7500000000e+001	 8.76896e-008
1402	 8.7562500000e+001	 9.58504e-008
1403	 8.7625000000e+001	 8.55341e-008
1404	 8.7687500000e+001	 8.83405e-008
1405	 8.7750000000e+001	 8.75705e-008
1406	 8.7812500000e+001	 7.68119e-008
1407	 8.7875000000e+001	 9.12789e-008
1408	 8.7937500000e+001	 9.92087e-008
1409	 8.8000000000e+001	 8.43581e-008
1410	 8.8062500000e+001	 7.11140e-008
1411	 8.8125000000e+001	 9.41901e-008
1412	 8.8187500000e+001	 8.96095e-008
1413	 8.8250000000e+001	 7.74950e-008
1414	 8.8312500000e+001	 8.90038e-008
1415	 8.8375000000e+001	 9.11869e-008
1416	 8.8437500000e+001	 7.50631e-008
1417	 8.8500000000e+001	 8.39029e-008
1418	 8.8562500000e+001	 7.75438e-008
1419	 8.8625000000e+001	 8.88490e-008
1420	 8.8687500000e+001	 8.44503e-008
1421	 8.8750000000e+001	 8.26400e-008
1422	 8.8812500000e+001	 7.50229e-008
1423	 8.8875000000e+001	 9.09530e-008
1424	 8.8937500000e+001	 8.82567e-008
1425	 8.9000000000e+001	 7.09096e-008
1426	 8.9062500000e+001	 8.65952e-008
1427	 8.9125000000e+001	 8.26246e-008
1428	 8.9187500000e+001	 7.03312e-008
1429	 8.9250000000e+001	 8.54464e-008
1430	 8.9312500000e+001	 8.04391e-008
1431	 8.9375000000e+001	 7.03481e-008
1432	 8.9437500000e+001	 9.37592e-008
1433	 8.9500000000e+001	 7.27683e-008
1434	 8.9562500000e+001	 7.82805e-008
1435	 8.9625000000e+001	 8.34222e-008
1436	 8.9687500000e+001	 8.30054e-008
1437	 8.9750000000e+001	 7.24363e-008
1438	 8.9812500000e+001	 7.73811e-008
1439	 8.9875000000e+001	 8.45398e-008
1440	 8.9937500000e+001	 7.83085e-008
1441	 9.0000000000e+001	 7.99237e-008
1442	 9.0062500000e+001	 7.52456e-008
1443	 9.0125000000e+001	 7.22767e-008
1444	 9.0187500000e+001	 8.29290e-008
1445	 9.0250000000e+001	 8.17440e-008
1446	 9.0312500000e+001	 7.14237e-008
1447	 9.0375000000e+001	 8.41576e-008
1448	 9.0437500000e+001	 7.62595e-008
1449	 9.0500000000e+001	 8.09276e-008
1450	 9.0562500000e+001	 6.41790e-008
1451	 9.0625000000e+001	 9.41978e-008
1452	 9.0687500000e+001	 7.47520e-008
1453	 9.0750000000e+001	 7.86192e-008
1454	 9.0812500000e+001	 8.24764e-008
1455	 9.0875000000e+001	 7.35547e-008
1456	 9.0937500000e+001	 7.16360e-008
1457	 9.1000000000e+001	 8.08706e-008
1458	 9.1062500000e+001	 6.46310e-008
1459	 9.1125000000e+001	 9.28328e-008
1460	 9.1187500000e+001	 6.51578e-008
1461	 9.1250000000e+001	 8.43765e-008
1462	 9.1312500000e+001	 7.31260e-008
1463	 9.1375000000e+001	 7.53605e-008
1464	 9.1437500000e+001	 7.64775e-008
1465	 9.1500000000e+001	 9.09949e-008
1466	 9.1562500000e+001	 6.40774e-008
1467	 9.1625000000e+001	 6.56878e-008
1468	 9.1687500000e+001	 7.98377e-008
1469	 9.1750000000e+001	 7.57199e-008
1470	 9.1812500000e+001	 7.65149e-008
1471	 9.1875000000e+001	 7.29291e-008
1472	 9.1937500000e+001	 7.23993e-008
1473	 9.2000000000e+001	 8.37762e-008
1474	 9.2062500000e+001	 6.03397e-008
1475	 9.2125000000e+001	 7.73189e-008
1476	 9.2187500000e+001	 8.21439e-008
1477	 9.2250000000e+001	 6.15419e-008
1478	 9.2312500000e+001	 9.77153e-008
1479	 9.2375000000e+001	 5.95858e-008
1480	 9.2437500000e+001	 7.61555e-008
1481	 9.2500000000e+001	 7.30178e-008
1482	 9.2562500000e+001	 6.83241e-008
1483	 9.2625000000e+001	 6.61394e-008
1484	 9.2687500000e+001	 7.54284e-008
1485	 9.2750000000e+001	 6.87288e-008
1486	 9.2812500000e+001	 7.61825e-008
1487	 9.2875000000e+001	 7.38682e-008
1488	 9.2937500000e+001	 6.70386e-008
1489	 9.3000000000e+001	 7.65579e-008
1490	 9.3062500000e+001	 8.27597e-008
1491	 9.3125000000e+001	 6.42196e-008
1492	 9.3187500000e+001	 7.69677e-008
1493	 9.3250000000e+001	 8.58209e-008
1494	 9.3312500000e+001	 6.11766e-008
1495	 9.3375000000e+001	 8.21666e-008
1496	 9.3437500000e+001	 7.45178e-008
1497	 9.3500000000e+001	 6.83844e-008
1498	 9.3562500000e+001	 8.07491e-008
1499	 9.3625000000e+001	 6.74544e-008
1500	 9.3687500000e+001	 7.17364e-008
1501	 9.3750000000e+001	 6.72861e-008
1502	 9.3812500000e+001	 7.66787e-008
1503	 9.3875000000e+001	 7.53220e-008
1504	 9.3937500000e+001	 6.98065e-008
1505	 9.4000000000e+001	 7.51406e-008
1506	 9.4062500000e+001	 6.82773e-008
1507	 9.4125000000e+001	 8.54595e-008
1508	 9.4187500000e+001	 7.08367e-008
1509	 9.4250000000e+001	 6.40894e-008
1510	 9.4312500000e+001	 7.66284e-008
1511	 9.4375000000e+001	 8.15775e-008
1512	 9.4437500000e+001	 6.79526e-008
1513	 9.4500000000e+001	 6.62563e-008
1514	 9.4562500000e+001	 8.28756e-008
1515	 9.4625000000e+001	 8.14523e-008
1516	 9.4687500000e+001	 7.31993e-008
1517	 9.4750000000e+001	 8.27183e-008
1518	 9.4812500000e+001	 6.47701e-008
1519	 9.4875000000e+001	 7.58842e-008
1520	 9.4937500000e+001	 9.43982e-008
1521	 9.5000000000e+001	 6.58834e-008
1522	 9.5062500000e+001	 8.12379e-008
1523	 9.5125000000e+001	 7.61217e-008
1524	 9.5187500000e+001	 7.69021e-008
1525	 9.5250000000e+001	 7.19797e-008
1526	 9.5312500000e+001	 6.95425e-008
1527	 9.5375000000e+001	 7.90695e-008
1528	 9.5437500000e+001	 7.53853e-008
1529	 9.5500000000e+001	 7.12743e-008
1530	 9.5562500000e+001	 7.18760e-008
1531	 9.5625000000e+001	 7.26375e-008
1532	 9.5687500000e+001	 8.06741e-008
1533	 9.5750000000e+001	 7.26462e-008
1534	 9.5812500000e+001	 7.37440e-008
1535	 9.5875000000e+001	 7.13562e-008
1536	 9.5937500000e+001	 7.72361e-008
1537	 9.6000000000e+001	 7.29954e-008
1538	 9.6062500000e+001	 8.31964e-008
1539	 9.6125000000e+001	 6.51332e-008
1540	 9.6187500000e+001	 7.11266e-008
1541	 9.6250000000e+001	 7.86818e-008
1542	 9.6312500000e+001	 5.71715e-008
1543	 9.6375000000e+001	 7.49381e-008
1544	 9.6437500000e+001	 8.02827e-008
1545	 9.6500000000e+001	 5.68913e-008
1546	 9.6562500000e+001	 8.05833e-008
1547	 9.6625000000e+001	 7.43170e-008
1548	 9.6687500000e+001	 5.59230e-008
1549	 9.6750000000e+001	 7.52139e-008
1550	 9.6812500000e+001	 7.40725e-008
1551	 9.6875000000e+001	 6.33020e-008
1552	 9.6937500000e+001	 7.50127e-008
1553	 9.7000000000e+001	 5.90083e-008
1554	 9.7062500000e+001	 6.34983e-008
1555	 9.7125000000e+001	 7.05801e-008
1556	 9.7187500000e+001	 5.52117e-008
1557	 9.7250000000e+001	 6.74398e-008
1558	 9.7312500000e+001	 6.31487e-008
1559	 9.7375000000e+001	 7.06861e-008
1560	 9.7437500000e+001	 6.00808e-008
1561	 9.7500000000e+001	 7.10257e-008
1562	 9.7562500000e+001	 6.20394e-008
1563	 9.7625000000e+001	 6.08894e-008
1564	 9.7687500000e+001	 6.25257e-008
1565	 9.7750000000e+001	 5.40595e-008
1566	 9.7812500000e+001	 6.60570e-008
1567	 9.7875000000e+001	 6.43705e-008
1568	 9.7937500000e+001	 6.24278e-008
1569	 9.8000000000e+001	 5.98603e-008
1570	 9.8062500000e+001	 6.45977e-008
1571	 9.8125000000e+001	 5.09459e-008
1572	 9.8187500000e+001	 6.30203e-008
1573	 9.8250000000e+001	 6.04435e-008
1574	 9.8312500000e+001	 6.36473e-008
1575	 9.8375000000e+001	 5.34491e-008
1576	 9.8437500000e+001	 6.51721e-008
1577	 9.8500000000e+001	 6.35984e-008
1578	 9.8562500000e+001	 5.38233e-008
1579	 9.8625000000e+001	 5.94501e-008
1580	 9.8687500000e+001	 6.70531e-008
1581	 9.8750000000e+001	 5.64222e-008
1582	 9.8812500000e+001	 5.33223e-008
1583	 9.8875000000e+001	 6.17878e-008
1584	 9.8937500000e+001	 5.56945e-008
1585	 9.9000000000e+001	 5.54449e-008
1586	 9.9062500000e+001	 6.23522e-008
1587	 9.9125000000e+001	 5.72204e-008
1588	 9.9187500000e+001	 4.74642e-008
1589	 9.9250000000e+001	 5.99203e-008
1590	 9.9312500000e+001	 5.44284e-008
1591	 9.9375000000e+001	 6.62071e-008
1592	 9.9437500000e+001	 5.51404e-008
1593	 9.9500000000e+001	 5.72682e-008
1594	 9.9562500000e+001	 5.97966e-008
1595	 9.9625000000e+001	 4.80011e-008
1596	 9.9687500000e+001	 5.62276e-008
1597	 9.9750000000e+001	 5.81705e-008
1598	 9.9812500000e+001	 5.74357e-008
1599	 9.9875000000e+001	 5.75150e-008
1600	 9.9937500000e+001	 4.06330e-008
1601	 1.0000000000e+002	 8.02637e-008
1602	 1.0006250000e+002	 4.88791e-008
1603	 1.0012500000e+002	 5.84380e-008
1604	 1.0018750000e+002	 6.08337e-008
1605	 1.0025000000e+002	 5.95113e-008
1606	 1.0031250000e+002	 4.71583e-008
1607	 1.0037500000e+002	 6.79931e-008
1608	 1.0043750000e+002	 4.34652e-008
1609	 1.0050000000e+002	 6.02024e-008
1610	 1.0056250000e+002	 5.88698e-008
1611	 1.0062500000e+002	 5.60460e-008
1612	 1.0068750000e+002	 5.29960e-008
1613	 1.0075000000e+002	 6.21571e-008
1614	 1.0081250000e+002	 4.87687e-008
1615	 1.0087500000e+002	 5.72780e-008
1616	 1.0093750000e+002	 5.38237e-008
1617	 1.0100000000e+002	 5.52816e-008
1618	 1.0106250000e+002	 5.43268e-008
1619	 1.0112500000e+002	 5.48205e-008
1620	 1.0118750000e+002	 5.49416e-008
1621	 1.0125000000e+002	 5.58900e-008
1622	 1.0131250000e+002	 5.21715e-008
1623	 1.0137500000e+002	 5.76560e-008
1624	 1.0143750000e+002	 5.01830e-008
1625	 1.0150000000e+002	 5.93637e-008
1626	 1.0156250000e+002	 6.69409e-008
1627	 1.0162500000e+002	 4.31232e-008
1628	 1.0168750000e+002	 6.08658e-008
1629	 1.0175000000e+002	 5.31277e-008
1630	 1.0181250000e+002	 4.58917e-008
1631	 1.0187500000e+002	 6.64196e-008
1632	 1.0193750000e+002	 5.31886e-008
1633	 1.0200000000e+002	 5.50328e-008
1634	 1.0206250000e+002	 5.30763e-008
1635	 1.0212500000e+002	 6.15836e-008
1636	 1.0218750000e+002	 5.82327e-008
1637	 1.0225000000e+002	 6.04003e-008
1638	 1.0231250000e+002	 5.75561e-008
1639	 1.0237500000e+002	 5.85816e-008
1640	 1.0243750000e+002	 7.25438e-008
1641	 1.0250000000e+002	 5.52918e-008
1642	 1.0256250000e+002	 5.51594e-008
1643	 1.0262500000e+002	 6.00392e-008
1644	 1.0268750000e+002	 6.68396e-008
1645	 1.0275000000e+002	 5.74318e-008
1646	 1.0281250000e+002	 6.50630e-008
1647	 1.0287500000e+002	 6.33894e-008
1648	 1.0293750000e+002	 6.14003e-008
1649	 1.0300000000e+002	 7.11567e-008
1650	 1.0306250000e+002	 6.74752e-008
1651	 1.0312500000e+002	 5.65905e-008
1652	 1.0318750000e+002	 7.20980e-008
1653	 1.0325000000e+002	 5.76238e-008
1654	 1.0331250000e+002	 6.63650e-008
1655	 1.0337500000e+002	 6.94822e-008
1656	 1.0343750000e+002	 6.75667e-008
1657	 1.0350000000e+002	 6.09967e-008
1658	 1.0356250000e+002	 7.36092e-008
1659	 1.0362500000e+002	 7.46992e-008
1660	 1.0368750000e+002	 6.39905e-008
1661	 1.0375000000e+002	 7.17073e-008
1662	 1.0381250000e+002	 7.17156e-008
1663	 1.0387500000e+002	 5.90705e-008
1664	 1.0393750000e+002	 7.79762e-008
1665	 1.0400000000e+002	 7.28752e-008
1666	 1.0406250000e+002	 5.97686e-008
1667	 1.0412500000e+002	 7.76637e-008
1668	 1.0418750000e+002	 7.80093e-008
1669	 1.0425000000e+002	 6.31235e-008
1670	 1.0431250000e+002	 7.06256e-008
1671	 1.0437500000e+002	 7.76138e-008
1672	 1.0443750000e+002	 6.29526e-008
1673	 1.0450000000e+002	 8.21427e-008
1674	 1.0456250000e+002	 6.55415e-008
1675	 1.0462500000e+002	 7.19652e-008
1676	 1.0468750000e+002	 7.15831e-008
1677	 1.0475000000e+002	 6.01882e-008
1678	 1.0481250000e+002	 7.05534e-008
1679	 1.0487500000e+002	 7.31617e-008
1680	 1.0493750000e+002	 7.15844e-008
1681	 1.0500000000e+002	 7.47396e-008
1682	 1.0506250000e+002	 6.09518e-008
1683	 1.0512500000e+002	 6.11647e-008
1684	 1.0518750000e+002	 7.08769e-008
1685	 1.0525000000e+002	 6.75733e-008
1686	 1.0531250000e+002	 6.25490e-008
1687	 1.0537500000e+002	 7.42872e-008
1688	 1.0543750000e+002	 6.44933e-008
1689	 1.0550000000e+002	 6.48475e-008
1690	 1.0556250000e+002	 6.30178e-008
1691	 1.0562500000e+002	 7.23851e-008
1692	 1.0568750000e+002	 5.86495e-008
1693	 1.0575000000e+002	 6.44323e-008
1694	 1.0581250000e+002	 6.75593e-008
1695	 1.0587500000e+002	 6.42474e-008
1696	 1.0593750000e+002	 7.02434e-008
1697	 1.0600000000e+002	 5.31760e-008
1698	 1.0606250000e+002	 6.36148e-008
1699	 1.0612500000e+002	 6.02988e-008
1700	 1.0618750000e+002	 6.72716e-008
1701	 1.0625000000e+002	 6.12836e-008
1702	 1.0631250000e+002	 6.42785e-008
1703	 1.0637500000e+002	 5.42044e-008
1704	 1.0643750000e+002	 5.47543e-008
1705	 1.0650000000e+002	 6.49879e-008
1706	 1.0656250000e+002	 5.11403e-008
1707	 1.0662500000e+002	 5.75509e-008
1708	 1.0668750000e+002	 4.95682e-008
1709	 1.0675000000e+002	 5.81816e-008
1710	 1.0681250000e+002	 4.97770e-008
1711	 1.0687500000e+002	 5.74121e-008
1712	 1.0693750000e+002	 5.02429e-008
1713	 1.0700000000e+002	 5.54549e-008
1714	 1.0706250000e+002	 5.47204e-008
1715	 1.0712500000e+002	 4.55262e-008
1716	 1.0718750000e+002	 5.99976e-008
1717	 1.0725000000e+002	 5.62271e-008
1718	 1.0731250000e+002	 5.12176e-008
1719	 1.0737500000e+002	 5.85324e-008
1720	 1.0743750000e+002	 5.83883e-008
1721	 1.0750000000e+002	 4.35703e-008
1722	 1.0756250000e+002	 5.44857e-008
1723	 1.0762500000e+002	 6.17993e-008
1724	 1.0768750000e+002	 3.97548e-008
1725	 1.0775000000e+002	 6.18325e-008
1726	 1.0781250000e+002	 5.66695e-008
1727	 1.0787500000e+002	 4.34283e-008
1728	 1.0793750000e+002	 5.60110e-008
1729	 1.0800000000e+002	 5.24136e-008
1730	 1.0806250000e+002	 4.07176e-008
1731	 1.0812500000e+002	 5.18197e-008
1732	 1.0818750000e+002	 5.15545e-008
1733	 1.0825000000e+002	 4.19611e-008
1734	 1.0831250000e+002	 4.96855e-008
1735	 1.0837500000e+002	 4.82495e-008
1736	 1.0843750000e+002	 3.95490e-008
1737	 1.0850000000e+002	 4.87499e-008
1738	 1.0856250000e+002	 4.91059e-008
1739	 1.0862500000e+002	 4.40027e-008
1740	 1.0868750000e+002	 4.62010e-008
1741	 1.0875000000e+002	 4.27563e-008
1742	 1.0881250000e+002	 3.55999e-008
1743	 1.0887500000e+002	 6.37823e-008
1744	 1.0893750000e+002	 3.58974e-008
1745	 1.0900000000e+002	 4.26617e-008
1746	 1.0906250000e+002	 4.42524e-008
1747	 1.0912500000e+002	 3.95357e-008
1748	 1.0918750000e+002	 5.02162e-008
1749	 1.0925000000e+002	 3.75358e-008
1750	 1.0931250000e+002	 3.80026e-008
1751	 1.0937500000e+002	 3.94693e-008
1752	 1.0943750000e+002	 3.94212e-008
1753	 1.0950000000e+002	 3.87145e-008
1754	 1.0956250000e+002	 3.49844e-008
1755	 1.0962500000e+002	 4.03616e-008
1756	 1.0968750000e+002	 4.00740e-008
1757	 1.0975000000e+002	 4.12781e-008
1758	 1.0981250000e+002	 3.42263e-008
1759	 1.0987500000e+002	 3.36644e-008
1760	 1.0993750000e+002	 4.82170e-008
1761	 1.1000000000e+002	 3.30065e-008
1762	 1.1006250000e+002	 4.10882e-008
1763	 1.1012500000e+002	 3.67136e-008
1764	 1.1018750000e+002	 4.23190e-008
1765	 1.1025000000e+002	 3.04381e-008
1766	 1.1031250000e+002	 3.21140e-008
1767	 1.1037500000e+002	 4.27408e-008
1768	 1.1043750000e+002	 3.25102e-008
1769	 1.1050000000e+002	 3.90509e-008
1770	 1.1056250000e+002	 4.32622e-008
1771	 1.1062500000e+002	 3.12523e-008
1772	 1.1068750000e+002	 4.07895e-008
1773	 1.1075000000e+002	 3.43818e-008
1774	 1.1081250000e+002	 2.93132e-008
1775	 1.1087500000e+002	 4.42685e-008
1776	 1.1093750000e+002	 3.75557e-008
1777	 1.1100000000e+002	 3.42807e-008
1778	 1.1106250000e+002	 3.66921e-008
1779	 1.1112500000e+002	 4.16519e-008
1780	 1.1118750000e+002	 3.44684e-008
1781	 1.1125000000e+002	 5.12888e-008
1782	 1.1131250000e+002	 3.13259e-008
1783	 1.1137500000e+002	 4.03669e-008
1784	 1.1143750000e+002	 4.51402e-008
1785	 1.1150000000e+002	 3.95071e-008
1786	 1.1156250000e+002	 4.06646e-008
1787	 1.1162500000e+002	 3.55207e-008
1788	 1.1168750000e+002	 3.99305e-008
1789	 1.1175000000e+002	 5.58662e-008
1790	 1.1181250000e+002	 4.31640e-008
1791	 1.1187500000e+002	 3.86878e-008
1792	 1.1193750000e+002	 5.14463e-008
1793	 1.1200000000e+002	 4.09634e-008
1794	 1.1206250000e+002	 4.45786e-008
1795	 1.1212500000e+002	 4.96458e-008
1796	 1.1218750000e+002	 5.35914e-008
1797	 1.1225000000e+002	 4.14121e-008
1798	 1.1231250000e+002	 4.00817e-008
1799	 1.1237500000e+002	 5.54658e-008
1800	 1.1243750000e+002	 4.35974e-008
1801	 1.1250000000e+002	 5.88288e-008
1802	 1.1256250000e+002	 4.53561e-008
1803	 1.1262500000e+002	 5.08368e-008
1804	 1.1268750000e+002	 5.28822e-008
1805	 1.1275000000e+002	 5.12011e-008
1806	 1.1281250000e+002	 5.07913e-008
1807	 1.1287500000e+002	 5.33377e-008
1808	 1.1293750000e+002	 5.76288e-008
1809	 1.1300000000e+002	 4.31613e-008
1810	 1.1306250000e+002	 5.50676e-008
1811	 1.1312500000e+002	 5.64979e-008
1812	 1.1318750000e+002	 5.65669e-008
1813	 1.1325000000e+002	 5.51253e-008
1814	 1.1331250000e+002	 5.19259e-008
1815	 1.1337500000e+002	 5.66469e-008
1816	 1.1343750000e+002	 4.98719e-008
1817	 1.1350000000e+002	 6.97789e-008
1818	 1.1356250000e+002	 5.28871e-008
1819	 1.1362500000e+002	 5.39464e-008
1820	 1.1368750000e+002	 5.70630e-008
1821	 1.1375000000e+002	 4.80767e-008
1822	 1.1381250000e+002	 5.10321e-008
1823	 1.1387500000e+002	 5.65825e-008
1824	 1.1393750000e+002	 5.21915e-008
1825	 1.1400000000e+002	 4.99278e-008
1826	 1.1406250000e+002	 5.95384e-008
1827	 1.1412500000e+002	 4.85648e-008
1828	 1.1418750000e+002	 5.09487e-008
1829	 1.1425000000e+002	 5.52773e-008
1830	 1.1431250000e+002	 5.14109e-008
1831	 1.1437500000e+002	 4.42854e-008
1832	 1.1443750000e+002	 5.46949e-008
1833	 1.1450000000e+002	 6.73977e-008
1834	 1.1456250000e+002	 4.57411e-008
1835	 1.1462500000e+002	 5.62470e-008
1836	 1.1468750000e+002	 5.94122e-008
1837	 1.1475000000e+002	 6.13447e-008
1838	 1.1481250000e+002	 5.72027e-008
1839	 1.1487500000e+002	 5.01728e-008
1840	 1.1493750000e+002	 6.34487e-008
1841	 1.1500000000e+002	 5.58151e-008
1842	 1.1506250000e+002	 6.17510e-008
1843	 1.1512500000e+002	 5.23333e-008
1844	 1.1518750000e+002	 6.03754e-008
1845	 1.1525000000e+002	 5.08290e-008
1846	 1.1531250000e+002	 5.75223e-008
1847	 1.1537500000e+002	 5.44430e-008
1848	 1.1543750000e+002	 5.03855e-008
1849	 1.1550000000e+002	 5.23384e-008
1850	 1.1556250000e+002	 4.63153e-008
1851	 1.1562500000e+002	 5.32723e-008
1852	 1.1568750000e+002	 5.08548e-008
1853	 1.1575000000e+002	 4.78034e-008
1854	 1.1581250000e+002	 5.21410e-008
1855	 1.1587500000e+002	 4.66551e-008
1856	 1.1593750000e+002	 5.37320e-008
1857	 1.1600000000e+002	 4.85074e-008
1858	 1.1606250000e+002	 4.27757e-008
1859	 1.1612500000e+002	 5.73031e-008
1860	 1.1618750000e+002	 4.31348e-008
1861	 1.1625000000e+002	 5.49972e-008
1862	 1.1631250000e+002	 4.90850e-008
1863	 1.1637500000e+002	 5.02666e-008
1864	 1.1643750000e+002	 5.39929e-008
1865	 1.1650000000e+002	 4.35440e-008
1866	 1.1656250000e+002	 5.05703e-008
1867	 1.1662500000e+002	 4.96323e-008
1868	 1.1668750000e+002	 4.92730e-008
1869	 1.1675000000e+002	 4.75044e-008
1870	 1.1681250000e+002	 4.44467e-008
1871	 1.1687500000e+002	 4.40533e-008
1872	 1.1693750000e+002	 5.55251e-008
1873	 1.1700000000e+002	 5.20896e-008
1874	 1.1706250000e+002	 3.86576e-008
1875	 1.1712500000e+002	 4.49299e-008
1876	 1.1718750000e+002	 4.40802e-008
1877	 1.1725000000e+002	 3.86333e-008
1878	 1.1731250000e+002	 4.92763e-008
1879	 1.1737500000e+002	 4.53730e-008
1880	 1.1743750000e+002	 3.65410e-008
1881	 1.1750000000e+002	 5.38741e-008
1882	 1.1756250000e+002	 4.13120e-008
1883	 1.1762500000e+002	 3.91810e-008
1884	 1.1768750000e+002	 4.84734e-008
1885	 1.1775000000e+002	 3.19827e-008
1886	 1.1781250000e+002	 4.33911e-008
1887	 1.1787500000e+002	 4.82730e-008
1888	 1.1793750000e+002	 3.78003e-008
1889	 1.1800000000e+002	 4.20218e-008
1890	 1.1806250000e+002	 3.67795e-008
1891	 1.1812500000e+002	 4.12182e-008
1892	 1.1818750000e+002	 3.66060e-008
1893	 1.1825000000e+002	 3.42175e-008
1894	 1.1831250000e+002	 3.94023e-008
1895	 1.1837500000e+002	 3.50440e-008
1896	 1.1843750000e+002	 2.98967e-008
1897	 1.1850000000e+002	 3.65475e-008
1898	 1.1856250000e+002	 3.05676e-008
1899	 1.1862500000e+002	 4.44054e-008
1900	 1.1868750000e+002	 3.00537e-008
1901	 1.1875000000e+002	 3.07932e-008
1902	 1.1881250000e+002	 3.19212e-008
1903	 1.1887500000e+002	 2.76057e-008
1904	 1.1893750000e+002	 3.62157e-008
1905	 1.1900000000e+002	 2.46027e-008
1906	 1.1906250000e+002	 2.75194e-008
1907	 1.1912500000e+002	 3.73152e-008
1908	 1.1918750000e+002	 2.50261e-008
1909	 1.1925000000e+002	 3.10911e-008
1910	 1.1931250000e+002	 2.63970e-008
1911	 1.1937500000e+002	 2.78151e-008
1912	 1.1943750000e+002	 2.75488e-008
1913	 1.1950000000e+002	 3.00679e-008
1914	 1.1956250000e+002	 3.00631e-008
1915	 1.1962500000e+002	 3.25701e-008
1916	 1.1968750000e+002	 2.18835e-008
1917	 1.1975000000e+002	 3.43973e-008
1918	 1.1981250000e+002	 2.33654e-008
1919	 1.1987500000e+002	 3.11602e-008
1920	 1.1993750000e+002	 2.92544e-008
1921	 1.2000000000e+002	 3.08407e-008
1922	 1.2006250000e+002	 3.18085e-008
1923	 1.2012500000e+002	 2.82086e-008
1924	 1.2018750000e+002	 3.66191e-008
1925	 1.2025000000e+002	 3.27169e-008
1926	 1.2031250000e+002	 2.92725e-008
1927	 1.2037500000e+002	 2.65449e-008
1928	 1.2043750000e+002	 3.93930e-008
1929	 1.2050000000e+002	 2.48600e-008
1930	 1.2056250000e+002	 3.74813e-008
1931	 1.2062500000e+002	 3.25530e-008
1932	 1.2068750000e+002	 3.19559e-008
1933	 1.2075000000e+002	 3.67703e-008
1934	 1.2081250000e+002	 3.00174e-008
1935	 1.2087500000e+002	 3.63190e-008
1936	 1.2093750000e+002	 3.49578e-008
1937	 1.2100000000e+002	 3.42707e-008
1938	 1.2106250000e+002	 3.57616e-008
1939	 1.2112500000e+002	 3.74388e-008
1940	 1.2118750000e+002	 3.53992e-008
1941	 1.2125000000e+002	 2.88887e-008
1942	 1.2131250000e+002	 3.45754e-008
1943	 1.2137500000e+002	 4.06066e-008
1944	 1.2143750000e+002	 3.77303e-008
1945	 1.2150000000e+002	 3.44860e-008
1946	 1.2156250000e+002	 3.48658e-008
1947	 1.2162500000e+002	 3.46329e-008
1948	 1.2168750000e+002	 3.16315e-008
1949	 1.2175000000e+002	 3.85696e-008
1950	 1.2181250000e+002	 4.19741e-008
1951	 1.2187500000e+002	 3.97370e-008
1952	 1.2193750000e+002	 3.80678e-008
1953	 1.2200000000e+002	 3.89368e-008
1954	 1.2206250000e+002	 3.78277e-008
1955	 1.2212500000e+002	 3.87828e-008
1956	 1.2218750000e+002	 4.59792e-008
1957	 1.2225000000e+002	 4.43474e-008
1958	 1.2231250000e+002	 4.14765e-008
1959	 1.2237500000e+002	 4.90950e-008
1960	 1.2243750000e+002	 3.73952e-008
1961	 1.2250000000e+002	 4.92505e-008
1962	 1.2256250000e+002	 4.60187e-008
1963	 1.2262500000e+002	 4.83949e-008
1964	 1.2268750000e+002	 5.02839e-008
1965	 1.2275000000e+002	 3.22371e-008
1966	 1.2281250000e+002	 4.81579e-008
1967	 1.2287500000e+002	 4.30142e-008
1968	 1.2293750000e+002	 4.09760e-008
1969	 1.2300000000e+002	 4.59418e-008
1970	 1.2306250000e+002	 3.96309e-008
1971	 1.2312500000e+002	 3.48780e-008
1972	 1.2318750000e+002	 5.31425e-008
1973	 1.2325000000e+002	 3.84741e-008
1974	 1.2331250000e+002	 3.83704e-008
1975	 1.2337500000e+002	 5.50186e-008
1976	 1.2343750000e+002	 4.84999e-008
1977	 1.2350000000e+002	 3.66941e-008
1978	 1.2356250000e+002	 5.32192e-008
1979	 1.2362500000e+002	 3.37839e-008
1980	 1.2368750000e+002	 4.65074e-008
1981	 1.2375000000e+002	 5.02055e-008
1982	 1.2381250000e+002	 4.81626e-008
1983	 1.2387500000e+002	 4.47452e-008
1984	 1.2393750000e+002	 4.47127e-008
1985	 1.2400000000e+002	 5.36856e-008
1986	 1.2406250000e+002	 4.10018e-008
1987	 1.2412500000e+002	 4.69590e-008
1988	 1.2418750000e+002	 4.91778e-008
1989	 1.2425000000e+002	 4.73942e-008
1990	 1.2431250000e+002	 4.35575e-008
1991	 1.2437500000e+002	 4.91673e-008
1992	 1.2443750000e+002	 4.38778e-008
1993	 1.2450000000e+002	 4.79166e-008
1994	 1.2456250000e+002	 4.75908e-008
1995	 1.2462500000e+002	 4.41226e-008
1996	 1.2468750000e+002	 4.63531e-008
1997	 1.2475000000e+002	 3.55001e-008
1998	 1.2481250000e+002	 5.42356e-008
1999	 1.2487500000e+002	 3.62492e-008
2000	 1.2493750000e+002	 4.19865e-008
2001	 1.2500000000e+002	 4.62642e-008
2002	 1.2506250000e+002	 4.90816e-008
2003	 1.2512500000e+002	 4.99721e-008
2004	 1.2518750000e+002	 3.54334e-008
2005	 1.2525000000e+002	 4.85670e-008
2006	 1.2531250000e+002	 4.20386e-008
2007	 1.2537500000e+002	 4.61390e-008
2008	 1.2543750000e+002	 4.36518e-008
2009	 1.2550000000e+002	 4.41962e-008
2010	 1.2556250000e+002	 4.06692e-008
2011	 1.2562500000e+002	 4.51271e-008
2012	 1.2568750000e+002	 5.04882e-008
2013	 1.2575000000e+002	 3.73613e-008
2014	 1.2581250000e+002	 4.49116e-008
2015	 1.2587500000e+002	 4.03557e-008
2016	 1.2593750000e+002	 3.68829e-008
2017	 1.2600000000e+002	 4.41022e-008
2018	 1.2606250000e+002	 4.24338e-008
2019	 1.2612500000e+002	 3.57780e-008
2020	 1.2618750000e+002	 3.41003e-008
2021	 1.2625000000e+002	 3.98695e-008
2022	 1.2631250000e+002	 4.39835e-008
2023	 1.2637500000e+002	 3.52432e-008
2024	 1.2643750000e+002	 3.03904e-008
2025	 1.2650000000e+002	 3.45554e-008
2026	 1.2656250000e+002	 3.93510e-008
2027	 1.2662500000e+002	 2.75611e-008
2028	 1.2668750000e+002	 4.53031e-008
2029	 1.2675000000e+002	 2.11975e-008
2030	 1.2681250000e+002	 2.88965e-008
2031	 1.2687500000e+002	 3.32693e-008
2032	 1.2693750000e+002	 2.72668e-008
2033	 1.2700000000e+002	 3.25898e-008
2034	 1.2706250000e+002	 3.33227e-008
2035	 1.2712500000e+002	 2.84060e-008
2036	 1.2718750000e+002	 2.45234e-008
2037	 1.2725000000e+002	 3.47883e-008
2038	 1.2731250000e+002	 3.26728e-008
2039	 1.2737500000e+002	 3.02682e-008
2040	 1.2743750000e+002	 3.48064e-008
2041	 1.2750000000e+002	 2.63243e-008
2042	 1.2756250000e+002	 3.04059e-008
2043	 1.2762500000e+002	 2.27475e-008
2044	 1.2768750000e+002	 3.69323e-008
2045	 1.2775000000e+002	 3.02522e-008
2046	 1.2781250000e+002	 1.93080e-008
2047	 1.2787500000e+002	 2.72257e-008
2048	 1.2793750000e+002	 3.03952e-008
2049	 1.2800000000e+002	 1.99383e-008
2050	 1.2806250000e+002	 2.14256e-008
2051	 1.2812500000e+002	 2.88292e-008
2052	 1.2818750000e+002	 2.22347e-008
2053	 1.2825000000e+002	 2.42100e-008
2054	 1.2831250000e+002	 2.76376e-008
2055	 1.2837500000e+002	 2.21396e-008
2056	 1.2843750000e+002	 1.82671e-008
2057	 1.2850000000e+002	 2.37173e-008
2058	 1.2856250000e+002	 2.13677e-008
2059	 1.2862500000e+002	 2.38120e-008
2060	 1.2868750000e+002	 3.12178e-008
2061	 1.2875000000e+002	 2.21594e-008
2062	 1.2881250000e+002	 2.05262e-008
2063	 1.2887500000e+002	 2.60200e-008
2064	 1.2893750000e+002	 1.97142e-008
2065	 1.2900000000e+002	 2.69983e-008
2066	 1.2906250000e+002	 2.47086e-008
2067	 1.2912500000e+002	 2.86976e-008
2068	 1.2918750000e+002	 2.09367e-008
2069	 1.2925000000e+002	 2.28781e-008
2070	 1.2931250000e+002	 2.23073e-008
2071	 1.2937500000e+002	 2.96669e-008
2072	 1.2943750000e+002	 2.47055e-008
2073	 1.2950000000e+002	 2.44917e-008
2074	 1.2956250000e+002	 2.07035e-008
2075	 1.2962500000e+002	 2.58673e-008
2076	 1.2968750000e+002	 1.99574e-008
2077	 1.2975000000e+002	 3.01960e-008
2078	 1.2981250000e+002	 2.79217e-008
2079	 1.2987500000e+002	 2.58979e-008
2080	 1.2993750000e+002	 2.56758e-008
2081	 1.3000000000e+002	 3.54746e-008
2082	 1.3006250000e+002	 2.64482e-008
2083	 1.3012500000e+002	 2.36245e-008
2084	 1.3018750000e+002	 3.25617e-008
2085	 1.3025000000e+002	 2.49244e-008
2086	 1.3031250000e+002	 2.79624e-008
2087	 1.3037500000e+002	 2.88512e-008
2088	 1.3043750000e+002	 2.36685e-008
2089	 1.3050000000e+002	 3.38705e-008
2090	 1.3056250000e+002	 2.04874e-008
2091	 1.3062500000e+002	 3.79136e-008
2092	 1.3068750000e+002	 2.80089e-008
2093	 1.3075000000e+002	 2.12796e-008
2094	 1.3081250000e+002	 3.22348e-008
2095	 1.3087500000e+002	 2.80689e-008
2096	 1.3093750000e+002	 3.10301e-008
2097	 1.3100000000e+002	 3.05704e-008
2098	 1.3106250000e+002	 2.99358e-008
2099	 1.3112500000e+002	 2.79630e-008
2100	 1.3118750000e+002	 3.09469e-008
2101	 1.3125000000e+002	 3.64851e-008
2102	 1.3131250000e+002	 2.84714e-008
2103	 1.3137500000e+002	 3.32383e-008
2104	 1.3143750000e+002	 2.97551e-008
2105	 1.3150000000e+002	 4.56761e-008
2106	 1.3156250000e+002	 2.62973e-008
2107	 1.3162500000e+002	 4.04678e-008
2108	 1.3168750000e+002	 3.27993e-008
2109	 1.3175000000e+002	 3.56718e-008
2110	 1.3181250000e+002	 3.32943e-008
2111	 1.3187500000e+002	 3.74012e-008
2112	 1.3193750000e+002	 2.86096e-008
2113	 1.3200000000e+002	 4.59461e-008
2114	 1.3206250000e+002	 3.18845e-008
2115	 1.3212500000e+002	 4.10559e-008
2116	 1.3218750000e+002	 3.28622e-008
2117	 1.3225000000e+002	 3.55244e-008
2118	 1.3231250000e+002	 3.39074e-008
2119	 1.3237500000e+002	 3.92023e-008
2120	 1.3243750000e+002	 3.47794e-008
2121	 1.3250000000e+002	 4.58305e-008
2122	 1.3256250000e+002	 3.89120e-008
2123	 1.3262500000e+002	 4.59451e-008
2124	 1.3268750000e+002	 4.80038e-008
2125	 1.3275000000e+002	 3.93638e-008
2126	 1.3281250000e+002	 4.69437e-008
2127	 1.3287500000e+002	 4.60873e-008
2128	 1.3293750000e+002	 3.73268e-008
2129	 1.3300000000e+002	 4.10582e-008
2130	 1.3306250000e+002	 5.58001e-008
2131	 1.3312500000e+002	 3.97271e-008
2132	 1.3318750000e+002	 4.46494e-008
2133	 1.3325000000e+002	 4.58499e-008
2134	 1.3331250000e+002	 4.07976e-008
2135	 1.3337500000e+002	 3.71063e-008
2136	 1.3343750000e+002	 5.10172e-008
2137	 1.3350000000e+002	 4.25487e-008
2138	 1.3356250000e+002	 4.64245e-008
2139	 1.3362500000e+002	 3.61086e-008
2140	 1.3368750000e+002	 4.06050e-008
2141	 1.3375000000e+002	 4.31252e-008
2142	 1.3381250000e+002	 4.55015e-008
2143	 1.3387500000e+002	 4.57833e-008
2144	 1.3393750000e+002	 3.30631e-008
2145	 1.3400000000e+002	 4.00339e-008
2146	 1.3406250000e+002	 3.74694e-008
2147	 1.3412500000e+002	 4.29995e-008
2148	 1.3418750000e+002	 3.60231e-008
2149	 1.3425000000e+002	 3.71797e-008
2150	 1.3431250000e+002	 3.58064e-008
2151	 1.3437500000e+002	 3.36897e-008
2152	 1.3443750000e+002	 4.06700e-008
2153	 1.3450000000e+002	 2.77673e-008
2154	 1.3456250000e+002	 4.47834e-008
2155	 1.3462500000e+002	 3.31913e-008
2156	 1.3468750000e+002	 4.06510e-008
2157	 1.3475000000e+002	 4.07914e-008
2158	 1.3481250000e+002	 3.89537e-008
2159	 1.3487500000e+002	 3.80070e-008
2160	 1.3493750000e+002	 3.75200e-008
2161	 1.3500000000e+002	 3.86125e-008
2162	 1.3506250000e+002	 3.44211e-008
2163	 1.3512500000e+002	 3.82670e-008
2164	 1.3518750000e+002	 3.55454e-008
2165	 1.3525000000e+002	 3.67648e-008
2166	 1.3531250000e+002	 3.48178e-008
2167	 1.3537500000e+002	 3.19561e-008
2168	 1.3543750000e+002	 3.35856e-008
2169	 1.3550000000e+002	 3.89350e-008
2170	 1.3556250000e+002	 2.58161e-008
2171	 1.3562500000e+002	 2.54835e-008
2172	 1.3568750000e+002	 2.84669e-008
2173	 1.3575000000e+002	 3.11032e-008
2174	 1.3581250000e+002	 2.68268e-008
2175	 1.3587500000e+002	 2.09997e-008
2176	 1.3593750000e+002	 2.61196e-008
2177	 1.3600000000e+002	 2.77083e-008
2178	 1.3606250000e+002	 3.20667e-008
2179	 1.3612500000e+002	 2.31212e-008
2180	 1.3618750000e+002	 2.58292e-008
2181	 1.3625000000e+002	 2.58712e-008
2182	 1.3631250000e+002	 3.15107e-008
2183	 1.3637500000e+002	 1.96373e-008
2184	 1.3643750000e+002	 2.83471e-008
2185	 1.3650000000e+002	 2.32924e-008
2186	 1.3656250000e+002	 2.44307e-008
2187	 1.3662500000e+002	 2.55418e-008
2188	 1.3668750000e+002	 2.15242e-008
2189	 1.3675000000e+002	 2.51004e-008
2190	 1.3681250000e+002	 2.11930e-008
2191	 1.3687500000e+002	 2.54982e-008
2192	 1.3693750000e+002	 2.12838e-008
2193	 1.3700000000e+002	 2.30996e-008
2194	 1.3706250000e+002	 1.63454e-008
2195	 1.3712500000e+002	 2.39967e-008
2196	 1.3718750000e+002	 1.93513e-008
2197	 1.3725000000e+002	 1.90484e-008
2198	 1.3731250000e+002	 2.01274e-008
2199	 1.3737500000e+002	 1.95496e-008
2200	 1.3743750000e+002	 1.44911e-008
2201	 1.3750000000e+002	 2.21432e-008
2202	 1.3756250000e+002	 1.99876e-008
2203	 1.3762500000e+002	 1.90424e-008
2204	 1.3768750000e+002	 1.83618e-008
2205	 1.3775000000e+002	 1.63993e-008
2206	 1.3781250000e+002	 1.95385e-008
2207	 1.3787500000e+002	 1.78218e-008
2208	 1.3793750000e+002	 1.57524e-008
2209	 1.3800000000e+002	 2.03786e-008
2210	 1.3806250000e+002	 1.59875e-008
2211	 1.3812500000e+002	 2.55469e-008
2212	 1.3818750000e+002	 1.50200e-008
2213	 1.3825000000e+002	 1.96636e-008
2214	 1.3831250000e+002	 1.50067e-008
2215	 1.3837500000e+002	 1.84780e-008
2216	 1.3843750000e+002	 1.96102e-008
2217	 1.3850000000e+002	 1.64570e-008
2218	 1.3856250000e+002	 1.49801e-008
2219	 1.3862500000e+002	 2.00913e-008
2220	 1.3868750000e+002	 1.87782e-008
2221	 1.3875000000e+002	 1.81614e-008
2222	 1.3881250000e+002	 1.28707e-008
2223	 1.3887500000e+002	 1.99066e-008
2224	 1.3893750000e+002	 1.74436e-008
2225	 1.3900000000e+002	 1.95827e-008
2226	 1.3906250000e+002	 1.33592e-008
2227	 1.3912500000e+002	 2.85747e-008
2228	 1.3918750000e+002	 1.49528e-008
2229	 1.3925000000e+002	 1.28299e-008
2230	 1.3931250000e+002	 2.52994e-008
2231	 1.3937500000e+002	 2.04038e-008
2232	 1.3943750000e+002	 1.41535e-008
2233	 1.3950000000e+002	 2.01136e-008
2234	 1.3956250000e+002	 2.32856e-008
2235	 1.3962500000e+002	 1.74828e-008
2236	 1.3968750000e+002	 1.96252e-008
2237	 1.3975000000e+002	 2.20198e-008
2238	 1.3981250000e+002	 2.20620e-008
2239	 1.3987500000e+002	 2.61322e-008
2240	 1.3993750000e+002	 1.39562e-008
2241	 1.4000000000e+002	 2.61510e-008
2242	 1.4006250000e+002	 1.87506e-008
2243	 1.4012500000e+002	 2.18858e-008
2244	 1.4018750000e+002	 2.53031e-008
2245	 1.4025000000e+002	 1.94630e-008
2246	 1.4031250000e+002	 1.59925e-008
2247	 1.4037500000e+002	 3.16909e-008
2248	 1.4043750000e+002	 1.93240e-008
2249	 1.4050000000e+002	 2.15652e-008
2250	 1.4056250000e+002	 2.45430e-008
2251	 1.4062500000e+002	 2.26016e-008
2252	 1.4068750000e+002	 2.19185e-008
2253	 1.4075000000e+002	 2.60553e-008
2254	 1.4081250000e+002	 2.27150e-008
2255	 1.4087500000e+002	 2.37390e-008
2256	 1.4093750000e+002	 3.02911e-008
2257	 1.4100000000e+002	 2.94694e-008
2258	 1.4106250000e+002	 2.77330e-008
2259	 1.4112500000e+002	 2.65878e-008
2260	 1.4118750000e+002	 2.39629e-008
2261	 1.4125000000e+002	 2.95217e-008
2262	 1.4131250000e+002	 3.09197e-008
2263	 1.4137500000e+002	 2.81218e-008
2264	 1.4143750000e+002	 2.63916e-008
2265	 1.4150000000e+002	 2.89912e-008
2266	 1.4156250000e+002	 2.79923e-008
2267	 1.4162500000e+002	 2.25981e-008
2268	 1.4168750000e+002	 3.89853e-008
2269	 1.4175000000e+002	 3.03470e-008
2270	 1.4181250000e+002	 1.92068e-008
2271	 1.4187500000e+002	 3.95372e-008
2272	 1.4193750000e+002	 2.63248e-008
2273	 1.4200000000e+002	 3.36462e-008
2274	 1.4206250000e+002	 2.51326e-008
2275	 1.4212500000e+002	 3.33355e-008
2276	 1.4218750000e+002	 2.75463e-008
2277	 1.4225000000e+002	 4.03687e-008
2278	 1.4231250000e+002	 3.20204e-008
2279	 1.4237500000e+002	 3.06238e-008
2280	 1.4243750000e+002	 3.78046e-008
2281	 1.4250000000e+002	 3.20482e-008
2282	 1.4256250000e+002	 3.44688e-008
2283	 1.4262500000e+002	 3.32780e-008
2284	 1.4268750000e+002	 4.02413e-008
2285	 1.4275000000e+002	 3.12422e-008
2286	 1.4281250000e+002	 4.49081e-008
2287	 1.4287500000e+002	 2.41866e-008
2288	 1.4293750000e+002	 2.73387e-008
2289	 1.4300000000e+002	 3.35874e-008
2290	 1.4306250000e+002	 3.41578e-008
2291	 1.4312500000e+002	 2.11396e-008
2292	 1.4318750000e+002	 2.35982e-008
2293	 1.4325000000e+002	 3.30093e-008
2294	 1.4331250000e+002	 2.46173e-008
2295	 1.4337500000e+002	 3.18870e-008
2296	 1.4343750000e+002	 2.82409e-008
2297	 1.4350000000e+002	 2.18468e-008
2298	 1.4356250000e+002	 3.19940e-008
2299	 1.4362500000e+002	 2.66548e-008
2300	 1.4368750000e+002	 3.67431e-008
2301	 1.4375000000e+002	 2.68032e-008
2302	 1.4381250000e+002	 3.01036e-008
2303	 1.4387500000e+002	 2.42685e-008
2304	 1.4393750000e+002	 3.18683e-008
2305	 1.4400000000e+002	 3.03034e-008
2306	 1.4406250000e+002	 2.96185e-008
2307	 1.4412500000e+002	 3.08742e-008
2308	 1.4418750000e+002	 2.37240e-008
2309	 1.4425000000e+002	 3.14124e-008
2310	 1.4431250000e+002	 2.96467e-008
2311	 1.4437500000e+002	 2.61493e-008
2312	 1.4443750000e+002	 2.80669e-008
2313	 1.4450000000e+002	 2.44972e-008
2314	 1.4456250000e+002	 2.43274e-008
2315	 1.4462500000e+002	 2.75050e-008
2316	 1.4468750000e+002	 2.61769e-008
2317	 1.4475000000e+002	 1.66463e-008
2318	 1.4481250000e+002	 2.49076e-008
2319	 1.4487500000e+002	 2.30841e-008
2320	 1.4493750000e+002	 1.84654e-008
2321	 1.4500000000e+002	 2.79666e-008
2322	 1.4506250000e+002	 2.25784e-008
2323	 1.4512500000e+002	 2.46683e-008
2324	 1.4518750000e+002	 2.63323e-008
2325	 1.4525000000e+002	 2.24723e-008
2326	 1.4531250000e+002	 2.52518e-008
2327	 1.4537500000e+002	 2.30073e-008
2328	 1.4543750000e+002	 2.01778e-008
2329	 1.4550000000e+002	 2.12393e-008
2330	 1.4556250000e+002	 2.74058e-008
2331	 1.4562500000e+002	 2.29653e-008
2332	 1.4568750000e+002	 2.43554e-008
2333	 1.4575000000e+002	 2.05132e-008
2334	 1.4581250000e+002	 2.22105e-008
2335	 1.4587500000e+002	 1.76148e-008
2336	 1.4593750000e+002	 2.16443e-008
2337	 1.4600000000e+002	 2.79349e-008
2338	 1.4606250000e+002	 1.40821e-008
2339	 1.4612500000e+002	 2.54026e-008
2340	 1.4618750000e+002	 1.91884e-008
2341	 1.4625000000e+002	 1.72290e-008
2342	 1.4631250000e+002	 1.73816e-008
2343	 1.4637500000e+002	 2.29679e-008
2344	 1.4643750000e+002	 1.14174e-008
2345	 1.4650000000e+002	 2.19545e-008
2346	 1.4656250000e+002	 1.32104e-008
2347	 1.4662500000e+002	 1.70615e-008
2348	 1.4668750000e+002	 1.76315e-008
2349	 1.4675000000e+002	 2.35838e-008
2350	 1.4681250000e+002	 1.72035e-008
2351	 1.4687500000e+002	 1.42339e-008
2352	 1.4693750000e+002	 1.76614e-008
2353	 1.4700000000e+002	 1.62900e-008
2354	 1.4706250000e+002	 1.69552e-008
2355	 1.4712500000e+002	 2.06854e-008
2356	 1.4718750000e+002	 1.94185e-008
2357	 1.4725000000e+002	 1.35953e-008
2358	 1.4731250000e+002	 2.01904e-008
2359	 1.4737500000e+002	 1.63869e-008
2360	 1.4743750000e+002	 2.17126e-008
2361	 1.4750000000e+002	 1.91914e-008
2362	 1.4756250000e+002	 1.81913e-008
2363	 1.4762500000e+002	 1.12412e-008
2364	 1.4768750000e+002	 1.98308e-008
2365	 1.4775000000e+002	 2.13365e-008
2366	 1.4781250000e+002	 1.99645e-008
2367	 1.4787500000e+002	 1.48589e-008
2368	 1.4793750000e+002	 1.43086e-008
2369	 1.4800000000e+002	 1.72278e-008
2370	 1.4806250000e+002	 1.40064e-008
2371	 1.4812500000e+002	 2.01182e-008
2372	 1.4818750000e+002	 1.42436e-008
2373	 1.4825000000e+002	 1.31630e-008
2374	 1.4831250000e+002	 1.82946e-008
2375	 1.4837500000e+002	 1.76287e-008
2376	 1.4843750000e+002	 1.82776e-008
2377	 1.4850000000e+002	 2.16719e-008
2378	 1.4856250000e+002	 1.47179e-008
2379	 1.4862500000e+002	 2.01304e-008
2380	 1.4868750000e+002	 2.08565e-008
2381	 1.4875000000e+002	 1.95862e-008
2382	 1.4881250000e+002	 2.12617e-008
2383	 1.4887500000e+002	 1.88436e-008
2384	 1.4893750000e+002	 1.84450e-008
2385	 1.4900000000e+002	 2.28548e-008
2386	 1.4906250000e+002	 1.83436e-008
2387	 1.4912500000e+002	 2.20544e-008
2388	 1.4918750000e+002	 2.44116e-008
2389	 1.4925000000e+002	 2.14496e-008
2390	 1.4931250000e+002	 2.21636e-008
2391	 1.4937500000e+002	 2.71265e-008
2392	 1.4943750000e+002	 2.68615e-008
2393	 1.4950000000e+002	 2.13169e-008
2394	 1.4956250000e+002	 1.95204e-008
2395	 1.4962500000e+002	 2.33809e-008
2396	 1.4968750000e+002	 2.44340e-008
2397	 1.4975000000e+002	 2.35866e-008
2398	 1.4981250000e+002	 2.95924e-008
2399	 1.4987500000e+002	 2.46064e-008
2400	 1.4993750000e+002	 2.91234e-008
2401	 1.5000000000e+002	 3.26170e-008
2402	 1.5006250000e+002	 2.67587e-008
2403	 1.5012500000e+002	 3.41792e-008
2404	 1.5018750000e+002	 2.91427e-008
2405	 1.5025000000e+002	 3.28780e-008
2406	 1.5031250000e+002	 3.20975e-008
2407	 1.5037500000e+002	 2.97898e-008
2408	 1.5043750000e+002	 3.54035e-008
2409	 1.5050000000e+002	 2.58822e-008
2410	 1.5056250000e+002	 3.37841e-008
2411	 1.5062500000e+002	 3.04482e-008
2412	 1.5068750000e+002	 2.93678e-008
2413	 1.5075000000e+002	 3.59146e-008
2414	 1.5081250000e+002	 2.29981e-008
2415	 1.5087500000e+002	 2.73178e-008
2416	 1.5093750000e+002	 2.43907e-008
2417	 1.5100000000e+002	 2.99481e-008
2418	 1.5106250000e+002	 3.35155e-008
2419	 1.5112500000e+002	 3.40421e-008
2420	 1.5118750000e+002	 2.60682e-008
2421	 1.5125000000e+002	 3.62825e-008
2422	 1.5131250000e+002	 3.05920e-008
2423	 1.5137500000e+002	 3.42410e-008
2424	 1.5143750000e+002	 3.51957e-008
2425	 1.5150000000e+002	 3.03082e-008
2426	 1.5156250000e+002	 3.70613e-008
2427	 1.5162500000e+002	 2.90925e-008
2428	 1.5168750000e+002	 3.42925e-008
2429	 1.5175000000e+002	 2.79816e-008
2430	 1.5181250000e+002	 3.79106e-008
2431	 1.5187500000e+002	 3.38429e-008
2432	 1.5193750000e+002	 3.40561e-008
2433	 1.5200000000e+002	 2.71253e-008
2434	 1.5206250000e+002	 3.29625e-008
2435	 1.5212500000e+002	 3.40711e-008
2436	 1.5218750000e+002	 3.14576e-008
2437	 1.5225000000e+002	 3.19409e-008
2438	 1.5231250000e+002	 2.39807e-008
2439	 1.5237500000e+002	 3.33279e-008
2440	 1.5243750000e+002	 3.10012e-008
2441	 1.5250000000e+002	 2.77294e-008
2442	 1.5256250000e+002	 3.50005e-008
2443	 1.5262500000e+002	 2.63006e-008
2444	 1.5268750000e+002	 3.68039e-008
2445	 1.5275000000e+002	 3.36820e-008
2446	 1.5281250000e+002	 2.73929e-008
2447	 1.5287500000e+002	 2.86648e-008
2448	 1.5293750000e+002	 2.98823e-008
2449	 1.5300000000e+002	 3.08198e-008
2450	 1.5306250000e+002	 2.50492e-008
2451	 1.5312500000e+002	 3.05872e-008
2452	 1.5318750000e+002	 3.04512e-008
2453	 1.5325000000e+002	 3.20693e-008
2454	 1.5331250000e+002	 2.58508e-008
2455	 1.5337500000e+002	 2.67277e-008
2456	 1.5343750000e+002	 3.27078e-008
2457	 1.5350000000e+002	 2.09224e-008
2458	 1.5356250000e+002	 3.45929e-008
2459	 1.5362500000e+002	 2.93472e-008
2460	 1.5368750000e+002	 3.12557e-008
2461	 1.5375000000e+002	 3.00630e-008
2462	 1.5381250000e+002	 3.26542e-008
2463	 1.5387500000e+002	 3.03784e-008
2464	 1.5393750000e+002	 3.24463e-008
2465	 1.5400000000e+002	 2.75355e-008
2466	 1.5406250000e+002	 2.58849e-008
2467	 1.5412500000e+002	 2.47644e-008
2468	 1.5418750000e+002	 1.73829e-008
2469	 1.5425000000e+002	 3.37446e-008
2470	 1.5431250000e+002	 2.04482e-008
2471	 1.5437500000e+002	 2.91370e-008
2472	 1.5443750000e+002	 1.68422e-008
2473	 1.5450000000e+002	 2.69281e-008
2474	 1.5456250000e+002	 2.15573e-008
2475	 1.5462500000e+002	 2.75945e-008
2476	 1.5468750000e+002	 2.09239e-008
2477	 1.5475000000e+002	 2.50512e-008
2478	 1.5481250000e+002	 2.71135e-008
2479	 1.5487500000e+002	 1.73390e-008
2480	 1.5493750000e+002	 3.02900e-008
2481	 1.5500000000e+002	 2.18039e-008
2482	 1.5506250000e+002	 1.97320e-008
2483	 1.5512500000e+002	 2.73292e-008
2484	 1.5518750000e+002	 2.41849e-008
2485	 1.5525000000e+002	 2.39501e-008
2486	 1.5531250000e+002	 2.13901e-008
2487	 1.5537500000e+002	 1.89955e-008
2488	 1.5543750000e+002	 2.23554e-008
2489	 1.5550000000e+002	 1.82143e-008
2490	 1.5556250000e+002	 1.41021e-008
2491	 1.5562500000e+002	 1.78231e-008
2492	 1.5568750000e+002	 1.66585e-008
2493	 1.5575000000e+002	 2.00406e-008
2494	 1.5581250000e+002	 1.10499e-008
2495	 1.5587500000e+002	 1.38021e-008
2496	 1.5593750000e+002	 1.22202e-008
2497	 1.5600000000e+002	 2.40808e-008
2498	 1.5606250000e+002	 1.37061e-008
2499	 1.5612500000e+002	 1.51120e-008
2500	 1.5618750000e+002	 1.85607e-008
2501	 1.5625000000e+002	 1.69346e-008
2502	 1.5631250000e+002	 2.02753e-008
2503	 1.5637500000e+002	 2.31285e-008
2504	 1.5643750000e+002	 1.71564e-008
2505	 1.5650000000e+002	 2.28693e-008
2506	 1.5656250000e+002	 1.78923e-008
2507	 1.5662500000e+002	 1.78155e-008
2508	 1.5668750000e+002	 2.24640e-008
2509	 1.5675000000e+002	 2.05796e-008
2510	 1.5681250000e+002	 1.40442e-008
2511	 1.5687500000e+002	 1.99620e-008
2512	 1.5693750000e+002	 1.31007e-008
2513	 1.5700000000e+002	 2.01143e-008
2514	 1.5706250000e+002	 1.27672e-008
2515	 1.5712500000e+002	 1.43661e-008
2516	 1.5718750000e+002	 1.37886e-008
2517	 1.5725000000e+002	 2.08508e-008
2518	 1.5731250000e+002	 1.57163e-008
2519	 1.5737500000e+002	 1.78819e-008
2520	 1.5743750000e+002	 2.18980e-008
2521	 1.5750000000e+002	 2.19828e-008
2522	 1.5756250000e+002	 1.96222e-008
2523	 1.5762500000e+002	 1.90260e-008
2524	 1.5768750000e+002	 2.02986e-008
2525	 1.5775000000e+002	 1.63340e-008
2526	 1.5781250000e+002	 2.67163e-008
2527	 1.5787500000e+002	 2.61312e-008
2528	 1.5793750000e+002	 3.01058e-008
2529	 1.5800000000e+002	 1.94342e-008
2530	 1.5806250000e+002	 2.57777e-008
2531	 1.5812500000e+002	 2.15628e-008
2532	 1.5818750000e+002	 2.33421e-008
2533	 1.5825000000e+002	 3.20477e-008
2534	 1.5831250000e+002	 2.00252e-008
2535	 1.5837500000e+002	 2.24319e-008
2536	 1.5843750000e+002	 2.19628e-008
2537	 1.5850000000e+002	 1.69544e-008
2538	 1.5856250000e+002	 2.41639e-008
2539	 1.5862500000e+002	 2.40413e-008
2540	 1.5868750000e+002	 1.97942e-008
2541	 1.5875000000e+002	 2.55576e-008
2542	 1.5881250000e+002	 2.02460e-008
2543	 1.5887500000e+002	 2.23612e-008
2544	 1.5893750000e+002	 2.13277e-008
2545	 1.5900000000e+002	 3.11041e-008
2546	 1.5906250000e+002	 2.70719e-008
2547	 1.5912500000e+002	 1.86699e-008
2548	 1.5918750000e+002	 3.06453e-008
2549	 1.5925000000e+002	 2.11578e-008
2550	 1.5931250000e+002	 2.91756e-008
2551	 1.5937500000e+002	 2.70889e-008
2552	 1.5943750000e+002	 2.61704e-008
2553	 1.5950000000e+002	 2.58303e-008
2554	 1.5956250000e+002	 3.05366e-008
2555	 1.5962500000e+002	 2.30380e-008
2556	 1.5968750000e+002	 2.79831e-008
2557	 1.5975000000e+002	 2.71961e-008
2558	 1.5981250000e+002	 3.27157e-008
2559	 1.5987500000e+002	 1.88965e-008
2560	 1.5993750000e+002	 3.22387e-008
2561	 1.6000000000e+002	 2.27436e-008
2562	 1.6006250000e+002	 2.87187e-008
2563	 1.6012500000e+002	 2.64282e-008
2564	 1.6018750000e+002	 2.67878e-008
2565	 1.6025000000e+002	 2.51447e-008
2566	 1.6031250000e+002	 2.64090e-008
2567	 1.6037500000e+002	 2.24198e-008
2568	 1.6043750000e+002	 3.00236e-008
2569	 1.6050000000e+002	 3.03095e-008
2570	 1.6056250000e+002	 2.99672e-008
2571	 1.6062500000e+002	 2.94279e-008
2572	 1.6068750000e+002	 3.57627e-008
2573	 1.6075000000e+002	 3.03183e-008
2574	 1.6081250000e+002	 2.95098e-008
2575	 1.6087500000e+002	 3.26324e-008
2576	 1.6093750000e+002	 3.17299e-008
2577	 1.6100000000e+002	 3.50335e-008
2578	 1.6106250000e+002	 3.04970e-008
2579	 1.6112500000e+002	 3.70383e-008
2580	 1.6118750000e+002	 3.51844e-008
2581	 1.6125000000e+002	 3.16167e-008
2582	 1.6131250000e+002	 3.88402e-008
2583	 1.6137500000e+002	 3.63544e-008
2584	 1.6143750000e+002	 3.06724e-008
2585	 1.6150000000e+002	 3.46245e-008
2586	 1.6156250000e+002	 3.08815e-008
2587	 1.6162500000e+002	 2.45452e-008
2588	 1.6168750000e+002	 3.18094e-008
2589	 1.6175000000e+002	 2.80711e-008
2590	 1.6181250000e+002	 2.38331e-008
2591	 1.6187500000e+002	 2.90905e-008
2592	 1.6193750000e+002	 2.98431e-008
2593	 1.6200000000e+002	 2.98183e-008
2594	 1.6206250000e+002	 2.69809e-008
2595	 1.6212500000e+002	 3.14306e-008
2596	 1.6218750000e+002	 3.22524e-008
2597	 1.6225000000e+002	 2.30117e-008
2598	 1.6231250000e+002	 3.24254e-008
2599	 1.6237500000e+002	 2.64182e-008
2600	 1.6243750000e+002	 3.62361e-008
2601	 1.6250000000e+002	 2.87700e-008
2602	 1.6256250000e+002	 2.51002e-008
2603	 1.6262500000e+002	 3.55697e-008
2604	 1.6268750000e+002	 2.31384e-008
2605	 1.6275000000e+002	 2.92993e-008
2606	 1.6281250000e+002	 2.56860e-008
2607	 1.6287500000e+002	 2.26097e-008
2608	 1.6293750000e+002	 2.83401e-008
2609	 1.6300000000e+002	 2.43932e-008
2610	 1.6306250000e+002	 2.22131e-008
2611	 1.6312500000e+002	 1.87236e-008
2612	 1.6318750000e+002	 1.96738e-008
2613	 1.6325000000e+002	 1.95264e-008
2614	 1.6331250000e+002	 1.48273e-008
2615	 1.6337500000e+002	 2.52955e-008
2616	 1.6343750000e+002	 1.79963e-008
2617	 1.6350000000e+002	 2.06843e-008
2618	 1.6356250000e+002	 1.53804e-008
2619	 1.6362500000e+002	 2.21750e-008
2620	 1.6368750000e+002	 2.60419e-008
2621	 1.6375000000e+002	 2.08816e-008
2622	 1.6381250000e+002	 2.36736e-008
2623	 1.6387500000e+002	 2.96356e-008
2624	 1.6393750000e+002	 2.02427e-008
2625	 1.6400000000e+002	 2.61036e-008
2626	 1.6406250000e+002	 2.56692e-008
2627	 1.6412500000e+002	 2.02594e-008
2628	 1.6418750000e+002	 2.05507e-008
2629	 1.6425000000e+002	 1.99694e-008
2630	 1.6431250000e+002	 1.97080e-008
2631	 1.6437500000e+002	 1.42751e-008
2632	 1.6443750000e+002	 1.82744e-008
2633	 1.6450000000e+002	 2.20156e-008
2634	 1.6456250000e+002	 1.60584e-008
2635	 1.6462500000e+002	 1.97346e-008
2636	 1.6468750000e+002	 2.03849e-008
2637	 1.6475000000e+002	 1.81800e-008
2638	 1.6481250000e+002	 2.36249e-008
2639	 1.6487500000e+002	 2.15013e-008
2640	 1.6493750000e+002	 2.23250e-008
2641	 1.6500000000e+002	 1.81273e-008
2642	 1.6506250000e+002	 2.37363e-008
2643	 1.6512500000e+002	 1.64200e-008
2644	 1.6518750000e+002	 2.16327e-008
2645	 1.6525000000e+002	 2.45404e-008
2646	 1.6531250000e+002	 2.55628e-008
2647	 1.6537500000e+002	 1.83281e-008
2648	 1.6543750000e+002	 2.36698e-008
2649	 1.6550000000e+002	 1.01327e-008
2650	 1.6556250000e+002	 2.63175e-008
2651	 1.6562500000e+002	 1.95552e-008
2652	 1.6568750000e+002	 2.54128e-008
2653	 1.6575000000e+002	 2.12569e-008
2654	 1.6581250000e+002	 2.34506e-008
2655	 1.6587500000e+002	 2.47210e-008
2656	 1.6593750000e+002	 2.65458e-008
2657	 1.6600000000e+002	 1.81296e-008
2658	 1.6606250000e+002	 2.22806e-008
2659	 1.6612500000e+002	 2.46670e-008
2660	 1.6618750000e+002	 2.17483e-008
2661	 1.6625000000e+002	 2.49015e-008
2662	 1.6631250000e+002	 2.24855e-008
2663	 1.6637500000e+002	 2.44426e-008
2664	 1.6643750000e+002	 1.99233e-008
2665	 1.6650000000e+002	 2.47292e-008
2666	 1.6656250000e+002	 2.61087e-008
2667	 1.6662500000e+002	 1.75220e-008
2668	 1.6668750000e+002	 3.09416e-008
2669	 1.6675000000e+002	 1.80155e-008
2670	 1.6681250000e+002	 2.08807e-008
2671	 1.6687500000e+002	 2.52898e-008
2672	 1.6693750000e+002	 1.81190e-008
2673	 1.6700000000e+002	 2.25819e-008
2674	 1.6706250000e+002	 1.89421e-008
2675	 1.6712500000e+002	 2.16904e-008
2676	 1.6718750000e+002	 2.32402e-008
2677	 1.6725000000e+002	 2.48860e-008
2678	 1.6731250000e+002	 2.49850e-008
2679	 1.6737500000e+002	 2.10122e-008
2680	 1.6743750000e+002	 1.97738e-008
2681	 1.6750000000e+002	 2.09531e-008
2682	 1.6756250000e+002	 1.82194e-008
2683	 1.6762500000e+002	 2.24375e-008
2684	 1.6768750000e+002	 2.02398e-008
2685	 1.6775000000e+002	 2.58891e-008
2686	 1.6781250000e+002	 2.40874e-008
2687	 1.6787500000e+002	 2.16283e-008
2688	 1.6793750000e+002	 2.48978e-008
2689	 1.6800000000e+002	 1.89162e-008
2690	 1.6806250000e+002	 2.18745e-008
2691	 1.6812500000e+002	 2.04852e-008
2692	 1.6818750000e+002	 2.51001e-008
2693	 1.6825000000e+002	 3.10615e-008
2694	 1.6831250000e+002	 2.03316e-008
2695	 1.6837500000e+002	 3.26546e-008
2696	 1.6843750000e+002	 3.17650e-008
2697	 1.6850000000e+002	 2.81025e-008
2698	 1.6856250000e+002	 3.50577e-008
2699	 1.6862500000e+002	 2.59934e-008
2700	 1.6868750000e+002	 3.10896e-008
2701	 1.6875000000e+002	 3.64612e-008
2702	 1.6881250000e+002	 3.07718e-008
2703	 1.6887500000e+002	 3.23391e-008
2704	 1.6893750000e+002	 3.41478e-008
2705	 1.6900000000e+002	 2.90686e-008
2706	 1.6906250000e+002	 2.88388e-008
2707	 1.6912500000e+002	 2.70239e-008
2708	 1.6918750000e+002	 2.92339e-008
2709	 1.6925000000e+002	 2.57897e-008
2710	 1.6931250000e+002	 2.11573e-008
2711	 1.6937500000e+002	 2.43021e-008
2712	 1.6943750000e+002	 2.83302e-008
2713	 1.6950000000e+002	 2.12263e-008
2714	 1.6956250000e+002	 2.44291e-008
2715	 1.6962500000e+002	 2.05803e-008
2716	 1.6968750000e+002	 2.10274e-008
2717	 1.6975000000e+002	 3.22257e-008
2718	 1.6981250000e+002	 2.65831e-008
2719	 1.6987500000e+002	 3.02296e-008
2720	 1.6993750000e+002	 2.87296e-008
2721	 1.7000000000e+002	 2.59511e-008
2722	 1.7006250000e+002	 3.05591e-008
2723	 1.7012500000e+002	 3.06468e-008
2724	 1.7018750000e+002	 3.59259e-008
2725	 1.7025000000e+002	 2.85510e-008
2726	 1.7031250000e+002	 3.73177e-008
2727	 1.7037500000e+002	 2.56598e-008
2728	 1.7043750000e+002	 2.71595e-008
2729	 1.7050000000e+002	 2.58494e-008
2730	 1.7056250000e+002	 3.08100e-008
2731	 1.7062500000e+002	 2.13370e-008
2732	 1.7068750000e+002	 2.08153e-008
2733	 1.7075000000e+002	 2.35373e-008
2734	 1.7081250000e+002	 1.51991e-008
2735	 1.7087500000e+002	 1.45929e-008
2736	 1.7093750000e+002	 1.63391e-008
2737	 1.7100000000e+002	 1.35847e-008
2738	 1.7106250000e+002	 2.19434e-008
2739	 1.7112500000e+002	 2.15948e-008
2740	 1.7118750000e+002	 1.59110e-008
2741	 1.7125000000e+002	 1.92405e-008
2742	 1.7131250000e+002	 1.28850e-008
2743	 1.7137500000e+002	 2.53173e-008
2744	 1.7143750000e+002	 2.64976e-008
2745	 1.7150000000e+002	 2.32837e-008
2746	 1.7156250000e+002	 1.80458e-008
2747	 1.7162500000e+002	 1.97889e-008
2748	 1.7168750000e+002	 1.82169e-008
2749	 1.7175000000e+002	 1.74928e-008
2750	 1.7181250000e+002	 1.57841e-008
2751	 1.7187500000e+002	 1.87686e-008
2752	 1.7193750000e+002	 2.10192e-008
2753	 1.7200000000e+002	 1.83038e-008
2754	 1.7206250000e+002	 2.36928e-008
2755	 1.7212500000e+002	 1.69878e-008
2756	 1.7218750000e+002	 1.72707e-008
2757	 1.7225000000e+002	 1.28733e-008
2758	 1.7231250000e+002	 1.38327e-008
2759	 1.7237500000e+002	 1.39628e-008
2760	 1.7243750000e+002	 1.54541e-008
2761	 1.7250000000e+002	 2.49419e-008
2762	 1.7256250000e+002	 1.74886e-008
2763	 1.7262500000e+002	 2.25747e-008
2764	 1.7268750000e+002	 1.76888e-008
2765	 1.7275000000e+002	 1.35269e-008
2766	 1.7281250000e+002	 2.16730e-008
2767	 1.7287500000e+002	 1.75752e-008
2768	 1.7293750000e+002	 1.49901e-008
2769	 1.7300000000e+002	 1.83812e-008
2770	 1.7306250000e+002	 2.09693e-008
2771	 1.7312500000e+002	 1.24709e-008
2772	 1.7318750000e+002	 1.34730e-008
2773	 1.7325000000e+002	 1.99811e-008
2774	 1.7331250000e+002	 1.72417e-008
2775	 1.7337500000e+002	 1.73747e-008
2776	 1.7343750000e+002	 1.64947e-008
2777	 1.7350000000e+002	 1.97302e-008
2778	 1.7356250000e+002	 1.74079e-008
2779	 1.7362500000e+002	 2.27545e-008
2780	 1.7368750000e+002	 1.87791e-008
2781	 1.7375000000e+002	 1.56753e-008
2782	 1.7381250000e+002	 2.00484e-008
2783	 1.7387500000e+002	 1.95752e-008
2784	 1.7393750000e+002	 1.44282e-008
2785	 1.7400000000e+002	 1.69390e-008
2786	 1.7406250000e+002	 1.93630e-008
2787	 1.7412500000e+002	 1.44745e-008
2788	 1.7418750000e+002	 1.79268e-008
2789	 1.7425000000e+002	 1.65567e-008
2790	 1.7431250000e+002	 1.03927e-008
2791	 1.7437500000e+002	 1.62947e-008
2792	 1.7443750000e+002	 1.21694e-008
2793	 1.7450000000e+002	 1.54871e-008
2794	 1.7456250000e+002	 1.14045e-008
2795	 1.7462500000e+002	 1.06626e-008
2796	 1.7468750000e+002	 1.76129e-008
2797	 1.7475000000e+002	 1.63597e-008
2798	 1.7481250000e+002	 1.85383e-008
2799	 1.7487500000e+002	 1.54840e-008
2800	 1.7493750000e+002	 1.68806e-008
2801	 1.7500000000e+002	 1.51981e-008
2802	 1.7506250000e+002	 1.32400e-008
2803	 1.7512500000e+002	 2.41228e-008
2804	 1.7518750000e+002	 2.43985e-008
2805	 1.7525000000e+002	 1.38722e-008
2806	 1.7531250000e+002	 2.16895e-008
2807	 1.7537500000e+002	 1.49622e-008
2808	 1.7543750000e+002	 1.59920e-008
2809	 1.7550000000e+002	 1.79683e-008
2810	 1.7556250000e+002	 1.98960e-008
2811	 1.7562500000e+002	 1.82090e-008
2812	 1.7568750000e+002	 1.76466e-008
2813	 1.7575000000e+002	 1.66552e-008
2814	 1.7581250000e+002	 1.59643e-008
2815	 1.7587500000e+002	 2.56633e-008
2816	 1.7593750000e+002	 2.15299e-008
2817	 1.7600000000e+002	 2.50763e-008
2818	 1.7606250000e+002	 2.05921e-008
2819	 1.7612500000e+002	 2.26715e-008
2820	 1.7618750000e+002	 2.19086e-008
2821	 1.7625000000e+002	 2.36972e-008
2822	 1.7631250000e+002	 3.08376e-008
2823	 1.7637500000e+002	 2.84489e-008
2824	 1.7643750000e+002	 2.60825e-008
2825	 1.7650000000e+002	 2.61570e-008
2826	 1.7656250000e+002	 2.61116e-008
2827	 1.7662500000e+002	 2.56898e-008
2828	 1.7668750000e+002	 2.99916e-008
2829	 1.7675000000e+002	 2.64695e-008
2830	 1.7681250000e+002	 2.12476e-008
2831	 1.7687500000e+002	 1.72338e-008
2832	 1.7693750000e+002	 2.07073e-008
2833	 1.7700000000e+002	 1.89714e-008
2834	 1.7706250000e+002	 2.20026e-008
2835	 1.7712500000e+002	 1.62346e-008
2836	 1.7718750000e+002	 2.52718e-008
2837	 1.7725000000e+002	 1.67335e-008
2838	 1.7731250000e+002	 1.67275e-008
2839	 1.7737500000e+002	 2.33030e-008
2840	 1.7743750000e+002	 2.69176e-008
2841	 1.7750000000e+002	 1.80306e-008
2842	 1.7756250000e+002	 3.39177e-008
2843	 1.7762500000e+002	 2.72283e-008
2844	 1.7768750000e+002	 2.66302e-008
2845	 1.7775000000e+002	 2.61367e-008
2846	 1.7781250000e+002	 2.61027e-008
2847	 1.7787500000e+002	 2.80202e-008
2848	 1.7793750000e+002	 2.45653e-008
2849	 1.7800000000e+002	 2.50064e-008
2850	 1.7806250000e+002	 1.52924e-008
2851	 1.7812500000e+002	 2.14037e-008
2852	 1.7818750000e+002	 1.97928e-008
2853	 1.7825000000e+002	 1.82275e-008
2854	 1.7831250000e+002	 1.93097e-008
2855	 1.7837500000e+002	 1.72477e-008
2856	 1.7843750000e+002	 2.11676e-008
2857	 1.7850000000e+002	 1.79470e-008
2858	 1.7856250000e+002	 2.34089e-008
2859	 1.7862500000e+002	 2.05909e-008
2860	 1.7868750000e+002	 1.80263e-008
2861	 1.7875000000e+002	 1.90553e-008
2862	 1.7881250000e+002	 1.90973e-008
2863	 1.7887500000e+002	 1.98464e-008
2864	 1.7893750000e+002	 1.95139e-008
2865	 1.7900000000e+002	 1.55083e-008
2866	 1.7906250000e+002	 2.50251e-008
2867	 1.7912500000e+002	 1.39477e-008
2868	 1.7918750000e+002	 1.94286e-008
2869	 1.7925000000e+002	 1.80851e-008
2870	 1.7931250000e+002	 1.75933e-008
2871	 1.7937500000e+002	 1.47946e-008
2872	 1.7943750000e+002	 2.09730e-008
2873	 1.7950000000e+002	 1.89846e-008
2874	 1.7956250000e+002	 1.60233e-008
2875	 1.7962500000e+002	 1.50571e-008
2876	 1.7968750000e+002	 1.44501e-008
2877	 1.7975000000e+002	 1.04715e-008
2878	 1.7981250000e+002	 1.62167e-008
2879	 1.7987500000e+002	 1.53210e-008
2880	 1.7993750000e+002	 2.08154e-008
2881	 1.8000000000e+002	 1.60411e-008
2882	 1.8006250000e+002	 1.60080e-008
2883	 1.8012500000e+002	 1.54361e-008
2884	 1.8018750000e+002	 1.61248e-008
2885	 1.8025000000e+002	 1.66988e-008
2886	 1.8031250000e+002	 2.13211e-008
2887	 1.8037500000e+002	 1.81739e-008
2888	 1.8043750000e+002	 2.14003e-008
2889	 1.8050000000e+002	 1.56119e-008
2890	 1.8056250000e+002	 2.02091e-008
2891	 1.8062500000e+002	 2.02154e-008
2892	 1.8068750000e+002	 1.38607e-008
2893	 1.8075000000e+002	 1.69411e-008
2894	 1.8081250000e+002	 1.34961e-008
2895	 1.8087500000e+002	 1.89121e-008
2896	 1.8093750000e+002	 1.15051e-008
2897	 1.8100000000e+002	 2.45265e-008
2898	 1.8106250000e+002	 2.07598e-008
2899	 1.8112500000e+002	 1.43286e-008
2900	 1.8118750000e+002	 2.86292e-008
2901	 1.8125000000e+002	 1.67985e-008
2902	 1.8131250000e+002	 1.92312e-008
2903	 1.8137500000e+002	 1.97939e-008
2904	 1.8143750000e+002	 1.64707e-008
2905	 1.8150000000e+002	 1.64164e-008
2906	 1.8156250000e+002	 1.28086e-008
2907	 1.8162500000e+002	 1.04266e-008
2908	 1.8168750000e+002	 1.45763e-008
2909	 1.8175000000e+002	 8.32501e-009
2910	 1.8181250000e+002	 8.89986e-009
2911	 1.8187500000e+002	 1.23809e-008
2912	 1.8193750000e+002	 1.06547e-008
2913	 1.8200000000e+002	 6.25039e-009
2914	 1.8206250000e+002	 6.39609e-009
2915	 1.8212500000e+002	 7.32797e-009
2916	 1.8218750000e+002	 4.61900e-009
2917	 1.8225000000e+002	 1.33327e-008
2918	 1.8231250000e+002	 1.22823e-008
2919	 1.8237500000e+002	 1.20721e-008
2920	 1.8243750000e+002	 1.56045e-008
2921	 1.8250000000e+002	 1.24844e-008
2922	 1.8256250000e+002	 2.03559e-008
2923	 1.8262500000e+002	 1.34624e-008
2924	 1.8268750000e+002	 2.20049e-008
2925	 1.8275000000e+002	 1.21072e-008
2926	 1.8281250000e+002	 2.80540e-008
2927	 1.8287500000e+002	 1.65635e-008
2928	 1.8293750000e+002	 1.44879e-008
2929	 1.8300000000e+002	 2.27676e-008
2930	 1.8306250000e+002	 1.53555e-008
2931	 1.8312500000e+002	 1.09623e-008
2932	 1.8318750000e+002	 1.35770e-008
2933	 1.8325000000e+002	 1.05497e-008
2934	 1.8331250000e+002	 8.43879e-009
2935	 1.8337500000e+002	 1.19142e-008
2936	 1.8343750000e+002	 9.91425e-009
2937	 1.8350000000e+002	 1.57369e-008
2938	 1.8356250000e+002	 1.38768e-008
2939	 1.8362500000e+002	 1.04310e-008
2940	 1.8368750000e+002	 1.35323e-008
2941	 1.8375000000e+002	 1.63781e-008
2942	 1.8381250000e+002	 1.37339e-008
2943	 1.8387500000e+002	 1.97335e-008
2944	 1.8393750000e+002	 1.86105e-008
2945	 1.8400000000e+002	 1.98373e-008
2946	 1.8406250000e+002	 2.02010e-008
2947	 1.8412500000e+002	 1.95390e-008
2948	 1.8418750000e+002	 2.16000e-008
2949	 1.8425000000e+002	 1.40342e-008
2950	 1.8431250000e+002	 3.31242e-008
2951	 1.8437500000e+002	 1.66418e-008
2952	 1.8443750000e+002	 2.43834e-008
2953	 1.8450000000e+002	 2.12894e-008
2954	 1.8456250000e+002	 1.76671e-008
2955	 1.8462500000e+002	 1.68823e-008
2956	 1.8468750000e+002	 1.44948e-008
2957	 1.8475000000e+002	 1.84198e-008
2958	 1.8481250000e+002	 2.02142e-008
2959	 1.8487500000e+002	 2.02746e-008
2960	 1.8493750000e+002	 2.63843e-008
2961	 1.8500000000e+002	 2.05610e-008
2962	 1.8506250000e+002	 2.08654e-008
2963	 1.8512500000e+002	 1.98531e-008
2964	 1.8518750000e+002	 2.78721e-008
2965	 1.8525000000e+002	 1.94826e-008
2966	 1.8531250000e+002	 2.67132e-008
2967	 1.8537500000e+002	 2.07243e-008
2968	 1.8543750000e+002	 1.86886e-008
2969	 1.8550000000e+002	 2.02905e-008
2970	 1.8556250000e+002	 1.77711e-008
2971	 1.8562500000e+002	 2.18604e-008
2972	 1.8568750000e+002	 1.83869e-008
2973	 1.8575000000e+002	 2.30240e-008
2974	 1.8581250000e+002	 1.48774e-008
2975	 1.8587500000e+002	 1.60634e-008
2976	 1.8593750000e+002	 1.91636e-008
2977	 1.8600000000e+002	 2.04271e-008
2978	 1.8606250000e+002	 2.00258e-008
2979	 1.8612500000e+002	 1.81206e-008
2980	 1.8618750000e+002	 2.26657e-008
2981	 1.8625000000e+002	 1.63329e-008
2982	 1.8631250000e+002	 1.46966e-008
2983	 1.8637500000e+002	 1.53073e-008
2984	 1.8643750000e+002	 1.99297e-008
2985	 1.8650000000e+002	 2.50900e-008
2986	 1.8656250000e+002	 2.11193e-008
2987	 1.8662500000e+002	 2.52743e-008
2988	 1.8668750000e+002	 2.36485e-008
2989	 1.8675000000e+002	 1.90047e-008
2990	 1.8681250000e+002	 1.54293e-008
2991	 1.8687500000e+002	 1.87257e-008
2992	 1.8693750000e+002	 1.04212e-008
2993	 1.8700000000e+002	 1.59860e-008
2994	 1.8706250000e+002	 1.75599e-008
2995	 1.8712500000e+002	 1.47382e-008
2996	 1.8718750000e+002	 2.09517e-008
2997	 1.8725000000e+002	 1.69953e-008
2998	 1.8731250000e+002	 1.66105e-008
2999	 1.8737500000e+002	 1.42057e-008
3000	 1.8743750000e+002	 1.82899e-008
3001	 1.8750000000e+002	 1.49807e-008
3002	 1.8756250000e+002	 1.51851e-008
3003	 1.8762500000e+002	 1.78162e-008
3004	 1.8768750000e+002	 1.56098e-008
3005	 1.8775000000e+002	 2.42397e-008
3006	 1.8781250000e+002	 1.43672e-008
3007	 1.8787500000e+002	 1.71771e-008
3008	 1.8793750000e+002	 1.98196e-008
3009	 1.8800000000e+002	 2.21879e-008
3010	 1.8806250000e+002	 1.91890e-008
3011	 1.8812500000e+002	 2.13292e-008
3012	 1.8818750000e+002	 1.73376e-008
3013	 1.8825000000e+002	 1.82637e-008
3014	 1.8831250000e+002	 2.26328e-008
3015	 1.8837500000e+002	 1.73652e-008
3016	 1.8843750000e+002	 1.93498e-008
3017	 1.8850000000e+002	 1.77084e-008
3018	 1.8856250000e+002	 2.43946e-008
3019	 1.8862500000e+002	 1.60290e-008
3020	 1.8868750000e+002	 2.05884e-008
3021	 1.8875000000e+002	 2.15782e-008
3022	 1.8881250000e+002	 2.06688e-008
3023	 1.8887500000e+002	 1.87197e-008
3024	 1.8893750000e+002	 1.66036e-008
3025	 1.8900000000e+002	 1.47874e-008
3026	 1.8906250000e+002	 1.85562e-008
3027	 1.8912500000e+002	 1.04830e-008
3028	 1.8918750000e+002	 1.59774e-008
3029	 1.8925000000e+002	 1.42654e-008
3030	 1.8931250000e+002	 1.12673e-008
3031	 1.8937500000e+002	 1.17331e-008
3032	 1.8943750000e+002	 1.16070e-008
3033	 1.8950000000e+002	 1.02934e-008
3034	 1.8956250000e+002	 1.04045e-008
3035	 1.8962500000e+002	 9.62841e-009
3036	 1.8968750000e+002	 6.41706e-009
3037	 1.8975000000e+002	 1.60955e-008
3038	 1.8981250000e+002	 1.23188e-008
3039	 1.8987500000e+002	 1.51722e-008
3040	 1.8993750000e+002	 1.38807e-008
3041	 1.9000000000e+002	 1.50614e-008
3042	 1.9006250000e+002	 9.32186e-009
3043	 1.9012500000e+002	 1.73436e-008
3044	 1.9018750000e+002	 1.89116e-008
3045	 1.9025000000e+002	 1.16878e-008
3046	 1.9031250000e+002	 1.61286e-008
3047	 1.9037500000e+002	 1.14989e-008
3048	 1.9043750000e+002	 1.14758e-008
3049	 1.9050000000e+002	 1.66012e-008
3050	 1.9056250000e+002	 1.26303e-008
3051	 1.9062500000e+002	 1.14951e-008
3052	 1.9068750000e+002	 1.05819e-008
3053	 1.9075000000e+002	 8.74858e-009
3054	 1.9081250000e+002	 9.02432e-009
3055	 1.9087500000e+002	 9.71169e-009
3056	 1.9093750000e+002	 1.30674e-008
3057	 1.9100000000e+002	 1.91363e-008
3058	 1.9106250000e+002	 1.11479e-008
3059	 1.9112500000e+002	 1.33223e-008
3060	 1.9118750000e+002	 1.80649e-008
3061	 1.9125000000e+002	 1.26491e-008
3062	 1.9131250000e+002	 1.80031e-008
3063	 1.9137500000e+002	 1.97012e-008
3064	 1.9143750000e+002	 1.65429e-008
3065	 1.9150000000e+002	 1.30035e-008
3066	 1.9156250000e+002	 1.76609e-008
3067	 1.9162500000e+002	 1.78822e-008
3068	 1.9168750000e+002	 1.57666e-008
3069	 1.9175000000e+002	 1.69543e-008
3070	 1.9181250000e+002	 1.67463e-008
3071	 1.9187500000e+002	 1.65224e-008
3072	 1.9193750000e+002	 1.35849e-008
3073	 1.9200000000e+002	 1.56461e-008
3074	 1.9206250000e+002	 1.66729e-008
3075	 1.9212500000e+002	 1.34748e-008
3076	 1.9218750000e+002	 1.66864e-008
3077	 1.9225000000e+002	 1.96715e-008
3078	 1.9231250000e+002	 2.01488e-008
3079	 1.9237500000e+002	 1.34914e-008
3080	 1.9243750000e+002	 1.98801e-008
3081	 1.9250000000e+002	 2.02862e-008
3082	 1.9256250000e+002	 1.44902e-008
3083	 1.9262500000e+002	 2.19267e-008
3084	 1.9268750000e+002	 1.42330e-008
3085	 1.9275000000e+002	 2.37257e-008
3086	 1.9281250000e+002	 2.10722e-008
3087	 1.9287500000e+002	 2.11660e-008
3088	 1.9293750000e+002	 2.15582e-008
3089	 1.9300000000e+002	 2.22556e-008
3090	 1.9306250000e+002	 2.39834e-008
3091	 1.9312500000e+002	 2.21321e-008
3092	 1.9318750000e+002	 1.70994e-008
3093	 1.9325000000e+002	 2.35933e-008
3094	 1.9331250000e+002	 1.53547e-008
3095	 1.9337500000e+002	 1.72354e-008
3096	 1.9343750000e+002	 1.86128e-008
3097	 1.9350000000e+002	 1.86395e-008
3098	 1.9356250000e+002	 2.19568e-008
3099	 1.9362500000e+002	 1.79314e-008
3100	 1.9368750000e+002	 1.53347e-008
3101	 1.9375000000e+002	 1.72756e-008
3102	 1.9381250000e+002	 1.83218e-008
3103	 1.9387500000e+002	 1.69846e-008
3104	 1.9393750000e+002	 2.43085e-008
3105	 1.9400000000e+002	 2.25898e-008
3106	 1.9406250000e+002	 1.80200e-008
3107	 1.9412500000e+002	 2.05390e-008
3108	 1.9418750000e+002	 1.75815e-008
3109	 1.9425000000e+002	 1.35893e-008
3110	 1.9431250000e+002	 9.46211e-009
3111	 1.9437500000e+002	 1.16949e-008
3112	 1.9443750000e+002	 1.44617e-008
3113	 1.9450000000e+002	 1.48843e-008
3114	 1.9456250000e+002	 1.84945e-008
3115	 1.9462500000e+002	 1.55950e-008
3116	 1.9468750000e+002	 9.60424e-009
3117	 1.9475000000e+002	 1.76359e-008
3118	 1.9481250000e+002	 2.08420e-008
3119	 1.9487500000e+002	 2.45831e-008
3120	 1.9493750000e+002	 2.44183e-008
3121	 1.9500000000e+002	 2.78383e-008
3122	 1.9506250000e+002	 2.48981e-008
3123	 1.9512500000e+002	 2.61198e-008
3124	 1.9518750000e+002	 3.05912e-008
3125	 1.9525000000e+002	 2.37511e-008
3126	 1.9531250000e+002	 3.24682e-008
3127	 1.9537500000e+002	 1.91006e-008
3128	 1.9543750000e+002	 2.83846e-008
3129	 1.9550000000e+002	 2.48908e-008
3130	 1.9556250000e+002	 2.29011e-008
3131	 1.9562500000e+002	 2.76396e-008
3132	 1.9568750000e+002	 2.10971e-008
3133	 1.9575000000e+002	 1.90931e-008
3134	 1.9581250000e+002	 2.28115e-008
3135	 1.9587500000e+002	 1.43295e-008
3136	 1.9593750000e+002	 1.58572e-008
3137	 1.9600000000e+002	 1.69300e-008
3138	 1.9606250000e+002	 1.36076e-008
3139	 1.9612500000e+002	 1.46041e-008
3140	 1.9618750000e+002	 1.47906e-008
3141	 1.9625000000e+002	 1.66378e-008
3142	 1.9631250000e+002	 1.52826e-008
3143	 1.9637500000e+002	 1.96649e-008
3144	 1.9643750000e+002	 1.69273e-008
3145	 1.9650000000e+002	 2.39281e-008
3146	 1.9656250000e+002	 2.03515e-008
3147	 1.9662500000e+002	 1.03354e-008
3148	 1.9668750000e+002	 1.96220e-008
3149	 1.9675000000e+002	 8.59973e-009
3150	 1.9681250000e+002	 1.24388e-008
3151	 1.9687500000e+002	 2.17815e-008
3152	 1.9693750000e+002	 1.98429e-008
3153	 1.9700000000e+002	 8.39317e-009
3154	 1.9706250000e+002	 1.39322e-008
3155	 1.9712500000e+002	 1.15727e-008
3156	 1.9718750000e+002	 1.00344e-008
3157	 1.9725000000e+002	 1.22572e-008
3158	 1.9731250000e+002	 1.23056e-008
3159	 1.9737500000e+002	 1.63500e-008
3160	 1.9743750000e+002	 1.67611e-008
3161	 1.9750000000e+002	 1.78281e-008
3162	 1.9756250000e+002	 1.22659e-008
3163	 1.9762500000e+002	 1.75025e-008
3164	 1.9768750000e+002	 1.67061e-008
3165	 1.9775000000e+002	 1.93688e-008
3166	 1.9781250000e+002	 1.16520e-008
3167	 1.9787500000e+002	 1.59508e-008
3168	 1.9793750000e+002	 1.28669e-008
3169	 1.9800000000e+002	 1.13344e-008
3170	 1.9806250000e+002	 1.63649e-008
3171	 1.9812500000e+002	 9.68868e-009
3172	 1.9818750000e+002	 1.12545e-008
3173	 1.9825000000e+002	 9.34376e-009
3174	 1.9831250000e+002	 3.80005e-009
3175	 1.9837500000e+002	 1.08014e-008
3176	 1.9843750000e+002	 6.91685e-009
3177	 1.9850000000e+002	 6.87273e-009
3178	 1.9856250000e+002	 1.19089e-008
3179	 1.9862500000e+002	 6.43506e-009
3180	 1.9868750000e+002	 9.78470e-009
3181	 1.9875000000e+002	 7.61606e-009
3182	 1.9881250000e+002	 1.45662e-008
3183	 1.9887500000e+002	 9.08713e-009
3184	 1.9893750000e+002	 1.77843e-008
3185	 1.9900000000e+002	 1.43870e-008
3186	 1.9906250000e+002	 1.71707e-008
3187	 1.9912500000e+002	 1.34064e-008
3188	 1.9918750000e+002	 1.26690e-008
3189	 1.9925000000e+002	 7.98145e-009
3190	 1.9931250000e+002	 1.40396e-008
3191	 1.9937500000e+002	 1.62504e-008
3192	 1.9943750000e+002	 1.41529e-008
3193	 1.9950000000e+002	 1.69075e-008
3194	 1.9956250000e+002	 1.86304e-008
3195	 1.9962500000e+002	 1.34449e-008
3196	 1.9968750000e+002	 1.61090e-008
3197	 1.9975000000e+002	 1.85843e-008
3198	 1.9981250000e+002	 1.12994e-008
3199	 1.9987500000e+002	 1.16249e-008
3200	 1.9993750000e+002	 1.67340e-008
3201	 2.0000000000e+002	 5.81829e-009
TagsBegin:	 	 
OverLoad:	 	False
AverageNumber: []	 	 1.00000e+000
OverLoadRatio: []	 	 1.19209e-007
TagsEnd:	 	 
TagScalesBegin:	 	 
TagScalesEnd:	 	 
